Study Name	Ge_thermal
Sample Name	100_001_vac_phase
Run Name	spot10
Operator	Cody
Date	8/29/2017
Time	14:57
Sign	FIX
Grating Spacing	09.80um
Channel	3
Number Traces	10000
Files in Batch	1
Batch Number	1
dt	50.000001E-12
time stamp (ms)	14:58:41
	
Time	Amplitude
0.000000E+0	6.851780E-4
5.000000E-11	7.399923E-4
1.000000E-10	7.605476E-4
1.500000E-10	7.536958E-4
2.000000E-10	7.194369E-4
2.500000E-10	6.577709E-4
3.000000E-10	6.132343E-4
3.500000E-10	5.824013E-4
4.000000E-10	5.481424E-4
4.500000E-10	5.412906E-4
5.000000E-10	5.721236E-4
5.500000E-10	6.098084E-4
6.000000E-10	6.543450E-4
6.500000E-10	7.023075E-4
7.000000E-10	7.434182E-4
7.500000E-10	7.742512E-4
8.000000E-10	7.811029E-4
8.500000E-10	7.605476E-4
9.000000E-10	7.399923E-4
9.500000E-10	6.988816E-4
1.000000E-9	6.269379E-4
1.050000E-9	5.686978E-4
1.100000E-9	5.310130E-4
1.150000E-9	4.864764E-4
1.200000E-9	4.522175E-4
1.250000E-9	4.556434E-4
1.300000E-9	4.727728E-4
1.350000E-9	4.864764E-4
1.400000E-9	5.036058E-4
1.450000E-9	5.344389E-4
1.500000E-9	5.549942E-4
1.550000E-9	5.618460E-4
1.600000E-9	5.755495E-4
1.650000E-9	5.858272E-4
1.700000E-9	5.824013E-4
1.750000E-9	5.618460E-4
1.800000E-9	5.310130E-4
1.850000E-9	5.001800E-4
1.900000E-9	4.727728E-4
1.950000E-9	4.282363E-4
2.000000E-9	3.836997E-4
2.050000E-9	3.357372E-4
2.100000E-9	3.014783E-4
2.150000E-9	3.049042E-4
2.200000E-9	3.460149E-4
2.250000E-9	3.939774E-4
2.300000E-9	4.316622E-4
2.350000E-9	4.864764E-4
2.400000E-9	5.652719E-4
2.450000E-9	6.235120E-4
2.500000E-9	6.543450E-4
2.550000E-9	6.714745E-4
2.600000E-9	6.611968E-4
2.650000E-9	6.166602E-4
2.700000E-9	5.721236E-4
2.750000E-9	5.104576E-4
2.800000E-9	4.282363E-4
2.850000E-9	3.631444E-4
2.900000E-9	3.254596E-4
2.950000E-9	2.843489E-4
3.000000E-9	2.672194E-4
3.050000E-9	2.980524E-4
3.100000E-9	3.323113E-4
3.150000E-9	3.734220E-4
3.200000E-9	4.487916E-4
3.250000E-9	5.070317E-4
3.300000E-9	5.378647E-4
3.350000E-9	5.824013E-4
3.400000E-9	6.474932E-4
3.450000E-9	6.611968E-4
3.500000E-9	6.440673E-4
3.550000E-9	6.269379E-4
3.600000E-9	6.029567E-4
3.650000E-9	5.755495E-4
3.700000E-9	5.515683E-4
3.750000E-9	5.241612E-4
3.800000E-9	4.796246E-4
3.850000E-9	4.487916E-4
3.900000E-9	4.042550E-4
3.950000E-9	3.425890E-4
4.000000E-9	3.083301E-4
4.050000E-9	2.980524E-4
4.100000E-9	2.843489E-4
4.150000E-9	2.843489E-4
4.200000E-9	3.083301E-4
4.250000E-9	3.391631E-4
4.300000E-9	3.802738E-4
4.350000E-9	4.350880E-4
4.400000E-9	4.796246E-4
4.450000E-9	5.070317E-4
4.500000E-9	5.275871E-4
4.550000E-9	5.310130E-4
4.600000E-9	5.001800E-4
4.650000E-9	4.624952E-4
4.700000E-9	4.145327E-4
4.750000E-9	3.597185E-4
4.800000E-9	2.980524E-4
4.850000E-9	2.398123E-4
4.900000E-9	1.849981E-4
4.950000E-9	1.747204E-4
5.000000E-9	2.055534E-4
5.050000E-9	2.261087E-4
5.100000E-9	2.466641E-4
5.150000E-9	3.117560E-4
5.200000E-9	3.802738E-4
5.250000E-9	4.385139E-4
5.300000E-9	4.933282E-4
5.350000E-9	5.378647E-4
5.400000E-9	5.755495E-4
5.450000E-9	6.269379E-4
5.500000E-9	6.783262E-4
5.550000E-9	7.125851E-4
5.600000E-9	7.399923E-4
5.650000E-9	7.639735E-4
5.700000E-9	7.811029E-4
5.750000E-9	7.845288E-4
5.800000E-9	7.776771E-4
5.850000E-9	7.811029E-4
5.900000E-9	7.742512E-4
5.950000E-9	7.331405E-4
6.000000E-9	6.851780E-4
6.050000E-9	6.406414E-4
6.100000E-9	5.995308E-4
6.150000E-9	5.858272E-4
6.200000E-9	5.926790E-4
6.250000E-9	6.029567E-4
6.300000E-9	6.474932E-4
6.350000E-9	7.228628E-4
6.400000E-9	8.119360E-4
6.450000E-9	9.147127E-4
6.500000E-9	1.014063E-3
6.550000E-9	1.092859E-3
6.600000E-9	1.147673E-3
6.650000E-9	1.181932E-3
6.700000E-9	1.185358E-3
6.750000E-9	1.157951E-3
6.800000E-9	1.092859E-3
6.850000E-9	1.010638E-3
6.900000E-9	9.215644E-4
6.950000E-9	8.256395E-4
7.000000E-9	7.399923E-4
7.050000E-9	6.646227E-4
7.100000E-9	6.063825E-4
7.150000E-9	5.755495E-4
7.200000E-9	5.858272E-4
7.250000E-9	6.406414E-4
7.300000E-9	7.057334E-4
7.350000E-9	7.776771E-4
7.400000E-9	8.667502E-4
7.450000E-9	9.421198E-4
7.500000E-9	9.832305E-4
7.550000E-9	1.020915E-3
7.600000E-9	1.051748E-3
7.650000E-9	1.044896E-3
7.700000E-9	1.034619E-3
7.750000E-9	1.062026E-3
7.800000E-9	1.123692E-3
7.850000E-9	1.243598E-3
7.900000E-9	1.503966E-3
7.950000E-9	1.993868E-3
8.000000E-9	2.720157E-3
8.050000E-9	3.768479E-3
8.100000E-9	5.282723E-3
8.150000E-9	7.334831E-3
8.200000E-9	9.928230E-3
8.250000E-9	1.312458E-2
8.300000E-9	1.698214E-2
8.350000E-9	2.144950E-2
8.400000E-9	2.641361E-2
8.450000E-9	3.176828E-2
8.500000E-9	3.736276E-2
8.550000E-9	4.298122E-2
8.600000E-9	4.844551E-2
8.650000E-9	5.357064E-2
8.700000E-9	5.811337E-2
8.750000E-9	6.192296E-2
8.800000E-9	6.495145E-2
8.850000E-9	6.710976E-2
8.900000E-9	6.839790E-2
8.950000E-9	6.894946E-2
9.000000E-9	6.885697E-2
9.050000E-9	6.823003E-2
9.100000E-9	6.733244E-2
9.150000E-9	6.636977E-2
9.200000E-9	6.542080E-2
9.250000E-9	6.462942E-2
9.300000E-9	6.416692E-2
9.350000E-9	6.402303E-2
9.400000E-9	6.418405E-2
9.450000E-9	6.473562E-2
9.500000E-9	6.561265E-2
9.550000E-9	6.665412E-2
9.600000E-9	6.784633E-2
9.650000E-9	6.914131E-2
9.700000E-9	7.040889E-2
9.750000E-9	7.162508E-2
9.800000E-9	7.279331E-2
9.850000E-9	7.382793E-2
9.900000E-9	7.469811E-2
9.950000E-9	7.543810E-2
1.000000E-8	7.604106E-2
1.005000E-8	7.646929E-2
1.010000E-8	7.670911E-2
1.015000E-8	7.673994E-2
1.020000E-8	7.655837E-2
1.025000E-8	7.614041E-2
1.030000E-8	7.543467E-2
1.035000E-8	7.442061E-2
1.040000E-8	7.312220E-2
1.045000E-8	7.149490E-2
1.050000E-8	6.948390E-2
1.055000E-8	6.713032E-2
1.060000E-8	6.449238E-2
1.065000E-8	6.155639E-2
1.070000E-8	5.833263E-2
1.075000E-8	5.487591E-2
1.080000E-8	5.123761E-2
1.085000E-8	4.744173E-2
1.090000E-8	4.353621E-2
1.095000E-8	3.958959E-2
1.100000E-8	3.564296E-2
1.105000E-8	3.174430E-2
1.110000E-8	2.792786E-2
1.115000E-8	2.422789E-2
1.120000E-8	2.068552E-2
1.125000E-8	1.736926E-2
1.130000E-8	1.431337E-2
1.135000E-8	1.151442E-2
1.140000E-8	9.006665E-3
1.145000E-8	6.844928E-3
1.150000E-8	5.084021E-3
1.155000E-8	3.741072E-3
1.160000E-8	2.822933E-3
1.165000E-8	2.363864E-3
1.170000E-8	2.377568E-3
1.175000E-8	2.864044E-3
1.180000E-8	3.830145E-3
1.185000E-8	5.248464E-3
1.190000E-8	7.077889E-3
1.195000E-8	9.291014E-3
1.200000E-8	1.189812E-2
1.205000E-8	1.481012E-2
1.210000E-8	1.796194E-2
1.215000E-8	2.132617E-2
1.220000E-8	2.486168E-2
1.225000E-8	2.849313E-2
1.230000E-8	3.216911E-2
1.235000E-8	3.590333E-2
1.240000E-8	3.967523E-2
1.245000E-8	4.341288E-2
1.250000E-8	4.706830E-2
1.255000E-8	5.064151E-2
1.260000E-8	5.412221E-2
1.265000E-8	5.746245E-2
1.270000E-8	6.063140E-2
1.275000E-8	6.361878E-2
1.280000E-8	6.637662E-2
1.285000E-8	6.884326E-2
1.290000E-8	7.102555E-2
1.295000E-8	7.290637E-2
1.300000E-8	7.447200E-2
1.305000E-8	7.570875E-2
1.310000E-8	7.659605E-2
1.315000E-8	7.712021E-2
1.320000E-8	7.732234E-2
1.325000E-8	7.722984E-2
1.330000E-8	7.685984E-2
1.335000E-8	7.625004E-2
1.340000E-8	7.543125E-2
1.345000E-8	7.440006E-2
1.350000E-8	7.315303E-2
1.355000E-8	7.173471E-2
1.360000E-8	7.017251E-2
1.365000E-8	6.843558E-2
1.370000E-8	6.650680E-2
1.375000E-8	6.443072E-2
1.380000E-8	6.220731E-2
1.385000E-8	5.984687E-2
1.390000E-8	5.737681E-2
1.395000E-8	5.480396E-2
1.400000E-8	5.215575E-2
1.405000E-8	4.946643E-2
1.410000E-8	4.674627E-2
1.415000E-8	4.402611E-2
1.420000E-8	4.134707E-2
1.425000E-8	3.869200E-2
1.430000E-8	3.606435E-2
1.435000E-8	3.351548E-2
1.440000E-8	3.105227E-2
1.445000E-8	2.864387E-2
1.450000E-8	2.632454E-2
1.455000E-8	2.411141E-2
1.460000E-8	2.197708E-2
1.465000E-8	1.995581E-2
1.470000E-8	1.809898E-2
1.475000E-8	1.638603E-2
1.480000E-8	1.482040E-2
1.485000E-8	1.345690E-2
1.490000E-8	1.228524E-2
1.495000E-8	1.132942E-2
1.500000E-8	1.064767E-2
1.505000E-8	1.020230E-2
1.510000E-8	9.986470E-3
1.515000E-8	1.007554E-2
1.520000E-8	1.046609E-2
1.525000E-8	1.111359E-2
1.530000E-8	1.204886E-2
1.535000E-8	1.332671E-2
1.540000E-8	1.487864E-2
1.545000E-8	1.666353E-2
1.550000E-8	1.872592E-2
1.555000E-8	2.104524E-2
1.560000E-8	2.358383E-2
1.565000E-8	2.635880E-2
1.570000E-8	2.932562E-2
1.575000E-8	3.244318E-2
1.580000E-8	3.572861E-2
1.585000E-8	3.914079E-2
1.590000E-8	4.259409E-2
1.595000E-8	4.607480E-2
1.600000E-8	4.957263E-2
1.605000E-8	5.300880E-2
1.610000E-8	5.634219E-2
1.615000E-8	5.958651E-2
1.620000E-8	6.270749E-2
1.625000E-8	6.561950E-2
1.630000E-8	6.830197E-2
1.635000E-8	7.075491E-2
1.640000E-8	7.296118E-2
1.645000E-8	7.485912E-2
1.650000E-8	7.641790E-2
1.655000E-8	7.764095E-2
1.660000E-8	7.852825E-2
1.665000E-8	7.902501E-2
1.670000E-8	7.912093E-2
1.675000E-8	7.882631E-2
1.680000E-8	7.812742E-2
1.685000E-8	7.702771E-2
1.690000E-8	7.556143E-2
1.695000E-8	7.373886E-2
1.700000E-8	7.157027E-2
1.705000E-8	6.910363E-2
1.710000E-8	6.639718E-2
1.715000E-8	6.346461E-2
1.720000E-8	6.034705E-2
1.725000E-8	5.709931E-2
1.730000E-8	5.373166E-2
1.735000E-8	5.028179E-2
1.740000E-8	4.680108E-2
1.745000E-8	4.331695E-2
1.750000E-8	3.981569E-2
1.755000E-8	3.635897E-2
1.760000E-8	3.300845E-2
1.765000E-8	2.976071E-2
1.770000E-8	2.662944E-2
1.775000E-8	2.366947E-2
1.780000E-8	2.091848E-2
1.785000E-8	1.837305E-2
1.790000E-8	1.603659E-2
1.795000E-8	1.396050E-2
1.800000E-8	1.215506E-2
1.805000E-8	1.058600E-2
1.810000E-8	9.263607E-3
1.815000E-8	8.211859E-3
1.820000E-8	7.437607E-3
1.825000E-8	6.937427E-3
1.830000E-8	6.711319E-3
1.835000E-8	6.755855E-3
1.840000E-8	7.060759E-3
1.845000E-8	7.650013E-3
1.850000E-8	8.540744E-3
1.855000E-8	9.739806E-3
1.860000E-8	1.119581E-2
1.865000E-8	1.289162E-2
1.870000E-8	1.483753E-2
1.875000E-8	1.703353E-2
1.880000E-8	1.942480E-2
1.885000E-8	2.197023E-2
1.890000E-8	2.465613E-2
1.895000E-8	2.745166E-2
1.900000E-8	3.032255E-2
1.905000E-8	3.324141E-2
1.910000E-8	3.615342E-2
1.915000E-8	3.905857E-2
1.920000E-8	4.194317E-2
1.925000E-8	4.478324E-2
1.930000E-8	4.756848E-2
1.935000E-8	5.027836E-2
1.940000E-8	5.289574E-2
1.945000E-8	5.541035E-2
1.950000E-8	5.780504E-2
1.955000E-8	6.006271E-2
1.960000E-8	6.214565E-2
1.965000E-8	6.403331E-2
1.970000E-8	6.572228E-2
1.975000E-8	6.720569E-2
1.980000E-8	6.845271E-2
1.985000E-8	6.947705E-2
1.990000E-8	7.024445E-2
1.995000E-8	7.075148E-2
2.000000E-8	7.100842E-2
2.005000E-8	7.099815E-2
2.010000E-8	7.069667E-2
2.015000E-8	7.013825E-2
2.020000E-8	6.933316E-2
2.025000E-8	6.825743E-2
2.030000E-8	6.690763E-2
2.035000E-8	6.531459E-2
2.040000E-8	6.349887E-2
2.045000E-8	6.142964E-2
2.050000E-8	5.914114E-2
2.055000E-8	5.666080E-2
2.060000E-8	5.399203E-2
2.065000E-8	5.117595E-2
2.070000E-8	4.825366E-2
2.075000E-8	4.522175E-2
2.080000E-8	4.214530E-2
2.085000E-8	3.906885E-2
2.090000E-8	3.599240E-2
2.095000E-8	3.293308E-2
2.100000E-8	2.996969E-2
2.105000E-8	2.710907E-2
2.110000E-8	2.432039E-2
2.115000E-8	2.165163E-2
2.120000E-8	1.917128E-2
2.125000E-8	1.684853E-2
2.130000E-8	1.467309E-2
2.135000E-8	1.270663E-2
2.140000E-8	1.098340E-2
2.145000E-8	9.482864E-3
2.150000E-8	8.201581E-3
2.155000E-8	7.160110E-3
2.160000E-8	6.368730E-3
2.165000E-8	5.861698E-3
2.170000E-8	5.645867E-3
2.175000E-8	5.704107E-3
2.180000E-8	6.070677E-3
2.185000E-8	6.752429E-3
2.190000E-8	7.715105E-3
2.195000E-8	8.968980E-3
2.200000E-8	1.056202E-2
2.205000E-8	1.245654E-2
2.210000E-8	1.460114E-2
2.215000E-8	1.703010E-2
2.220000E-8	1.970572E-2
2.225000E-8	2.250810E-2
2.230000E-8	2.542696E-2
2.235000E-8	2.849655E-2
2.240000E-8	3.163810E-2
2.245000E-8	3.476251E-2
2.250000E-8	3.788007E-2
2.255000E-8	4.096337E-2
2.260000E-8	4.394047E-2
2.265000E-8	4.680108E-2
2.270000E-8	4.956920E-2
2.275000E-8	5.222084E-2
2.280000E-8	5.469434E-2
2.285000E-8	5.699653E-2
2.290000E-8	5.912401E-2
2.295000E-8	6.102881E-2
2.300000E-8	6.268009E-2
2.305000E-8	6.408813E-2
2.310000E-8	6.526321E-2
2.315000E-8	6.615394E-2
2.320000E-8	6.673634E-2
2.325000E-8	6.706522E-2
2.330000E-8	6.712004E-2
2.335000E-8	6.684597E-2
2.340000E-8	6.631495E-2
2.345000E-8	6.556126E-2
2.350000E-8	6.453007E-2
2.355000E-8	6.323508E-2
2.360000E-8	6.173454E-2
2.365000E-8	6.001817E-2
2.370000E-8	5.808939E-2
2.375000E-8	5.599960E-2
2.380000E-8	5.375564E-2
2.385000E-8	5.134039E-2
2.390000E-8	4.880866E-2
2.395000E-8	4.619470E-2
2.400000E-8	4.349510E-2
2.405000E-8	4.074754E-2
2.410000E-8	3.799312E-2
2.415000E-8	3.524213E-2
2.420000E-8	3.250142E-2
2.425000E-8	2.981895E-2
2.430000E-8	2.719814E-2
2.435000E-8	2.463558E-2
2.440000E-8	2.217579E-2
2.445000E-8	1.984276E-2
2.450000E-8	1.764676E-2
2.455000E-8	1.559465E-2
2.460000E-8	1.371384E-2
2.465000E-8	1.202145E-2
2.470000E-8	1.050720E-2
2.475000E-8	9.188237E-3
2.480000E-8	8.078249E-3
2.485000E-8	7.190943E-3
2.490000E-8	6.529747E-3
2.495000E-8	6.084381E-3
2.500000E-8	5.875402E-3
2.505000E-8	5.913086E-3
2.510000E-8	6.200861E-3
2.515000E-8	6.745578E-3
2.520000E-8	7.557514E-3
2.525000E-8	8.629817E-3
2.530000E-8	9.948785E-3
2.535000E-8	1.151442E-2
2.540000E-8	1.331643E-2
2.545000E-8	1.533086E-2
2.550000E-8	1.751315E-2
2.555000E-8	1.984618E-2
2.560000E-8	2.233338E-2
2.565000E-8	2.493020E-2
2.570000E-8	2.756814E-2
2.575000E-8	3.026089E-2
2.580000E-8	3.301530E-2
2.585000E-8	3.576972E-2
2.590000E-8	3.850358E-2
2.595000E-8	4.119975E-2
2.600000E-8	4.382056E-2
2.605000E-8	4.634887E-2
2.610000E-8	4.880180E-2
2.615000E-8	5.114169E-2
2.620000E-8	5.334796E-2
2.625000E-8	5.540349E-2
2.630000E-8	5.726033E-2
2.635000E-8	5.889448E-2
2.640000E-8	6.032307E-2
2.645000E-8	6.152899E-2
2.650000E-8	6.244712E-2
2.655000E-8	6.308434E-2
2.660000E-8	6.349202E-2
2.665000E-8	6.364961E-2
2.670000E-8	6.351600E-2
2.675000E-8	6.311175E-2
2.680000E-8	6.248481E-2
2.685000E-8	6.163861E-2
2.690000E-8	6.054576E-2
2.695000E-8	5.918225E-2
2.700000E-8	5.757893E-2
2.705000E-8	5.576321E-2
2.710000E-8	5.373509E-2
2.715000E-8	5.149798E-2
2.720000E-8	4.907588E-2
2.725000E-8	4.647563E-2
2.730000E-8	4.373491E-2
2.735000E-8	4.091541E-2
2.740000E-8	3.805479E-2
2.745000E-8	3.515306E-2
2.750000E-8	3.226161E-2
2.755000E-8	2.943525E-2
2.760000E-8	2.667055E-2
2.765000E-8	2.399493E-2
2.770000E-8	2.145635E-2
2.775000E-8	1.904110E-2
2.780000E-8	1.679371E-2
2.785000E-8	1.470392E-2
2.790000E-8	1.274774E-2
2.795000E-8	1.096285E-2
2.800000E-8	9.410920E-3
2.805000E-8	8.074823E-3
2.810000E-8	6.927150E-3
2.815000E-8	6.015863E-3
2.820000E-8	5.371796E-3
2.825000E-8	4.970967E-3
2.830000E-8	4.830505E-3
2.835000E-8	4.967541E-3
2.840000E-8	5.361518E-3
2.845000E-8	6.022715E-3
2.850000E-8	6.940853E-3
2.855000E-8	8.085101E-3
2.860000E-8	9.448605E-3
2.865000E-8	1.103479E-2
2.870000E-8	1.279570E-2
2.875000E-8	1.471077E-2
2.880000E-8	1.676631E-2
2.885000E-8	1.896230E-2
2.890000E-8	2.128848E-2
2.895000E-8	2.370716E-2
2.900000E-8	2.616695E-2
2.905000E-8	2.865757E-2
2.910000E-8	3.119958E-2
2.915000E-8	3.375187E-2
2.920000E-8	3.625277E-2
2.925000E-8	3.868858E-2
2.930000E-8	4.107985E-2
2.935000E-8	4.338205E-2
2.940000E-8	4.554036E-2
2.945000E-8	4.755478E-2
2.950000E-8	4.942874E-2
2.955000E-8	5.114511E-2
2.960000E-8	5.267649E-2
2.965000E-8	5.400916E-2
2.970000E-8	5.517053E-2
2.975000E-8	5.615719E-2
2.980000E-8	5.693144E-2
2.985000E-8	5.750357E-2
2.990000E-8	5.788384E-2
2.995000E-8	5.807569E-2
3.000000E-8	5.806199E-2
3.005000E-8	5.781875E-2
3.010000E-8	5.734255E-2
3.015000E-8	5.666080E-2
3.020000E-8	5.581803E-2
3.025000E-8	5.476971E-2
3.030000E-8	5.349527E-2
3.035000E-8	5.204612E-2
3.040000E-8	5.045651E-2
3.045000E-8	4.868532E-2
3.050000E-8	4.674970E-2
3.055000E-8	4.472500E-2
3.060000E-8	4.261122E-2
3.065000E-8	4.038097E-2
3.070000E-8	3.806849E-2
3.075000E-8	3.570463E-2
3.080000E-8	3.326539E-2
3.085000E-8	3.075764E-2
3.090000E-8	2.825674E-2
3.095000E-8	2.575584E-2
3.100000E-8	2.325494E-2
3.105000E-8	2.081913E-2
3.110000E-8	1.848953E-2
3.115000E-8	1.624214E-2
3.120000E-8	1.412494E-2
3.125000E-8	1.218247E-2
3.130000E-8	1.043184E-2
3.135000E-8	8.900462E-3
3.140000E-8	7.619180E-3
3.145000E-8	6.581135E-3
3.150000E-8	5.786328E-3
3.155000E-8	5.265593E-3
3.160000E-8	4.991522E-3
3.165000E-8	4.957263E-3
3.170000E-8	5.131983E-3
3.175000E-8	5.488276E-3
3.180000E-8	6.053548E-3
3.185000E-8	6.862058E-3
3.190000E-8	7.862418E-3
3.195000E-8	9.027220E-3
3.200000E-8	1.040785E-2
3.205000E-8	1.199747E-2
3.210000E-8	1.375152E-2
3.215000E-8	1.567687E-2
3.220000E-8	1.777694E-2
3.225000E-8	2.000377E-2
3.230000E-8	2.231282E-2
3.235000E-8	2.471437E-2
3.240000E-8	2.718444E-2
3.245000E-8	2.967163E-2
3.250000E-8	3.214170E-2
3.255000E-8	3.457751E-2
3.260000E-8	3.696193E-2
3.265000E-8	3.926070E-2
3.270000E-8	4.145670E-2
3.275000E-8	4.354991E-2
3.280000E-8	4.553008E-2
3.285000E-8	4.735265E-2
3.290000E-8	4.899365E-2
3.295000E-8	5.048049E-2
3.300000E-8	5.176520E-2
3.305000E-8	5.281010E-2
3.310000E-8	5.363916E-2
3.315000E-8	5.425925E-2
3.320000E-8	5.464295E-2
3.325000E-8	5.478341E-2
3.330000E-8	5.468406E-2
3.335000E-8	5.436202E-2
3.340000E-8	5.386527E-2
3.345000E-8	5.318352E-2
3.350000E-8	5.227566E-2
3.355000E-8	5.119308E-2
3.360000E-8	5.000429E-2
3.365000E-8	4.869560E-2
3.370000E-8	4.721562E-2
3.375000E-8	4.560887E-2
3.380000E-8	4.390963E-2
3.385000E-8	4.207678E-2
3.390000E-8	4.010690E-2
3.395000E-8	3.802053E-2
3.400000E-8	3.583481E-2
3.405000E-8	3.356345E-2
3.410000E-8	3.122356E-2
3.415000E-8	2.883572E-2
3.420000E-8	2.645472E-2
3.425000E-8	2.412854E-2
3.430000E-8	2.184005E-2
3.435000E-8	1.961665E-2
3.440000E-8	1.756454E-2
3.445000E-8	1.569058E-2
3.450000E-8	1.395022E-2
3.455000E-8	1.234691E-2
3.460000E-8	1.091146E-2
3.465000E-8	9.637029E-3
3.470000E-8	8.537318E-3
3.475000E-8	7.626031E-3
3.480000E-8	6.868910E-3
3.485000E-8	6.279657E-3
3.490000E-8	5.889105E-3
3.495000E-8	5.704107E-3
3.500000E-8	5.710959E-3
3.505000E-8	5.913086E-3
3.510000E-8	6.327619E-3
3.515000E-8	6.954557E-3
3.520000E-8	7.787048E-3
3.525000E-8	8.818241E-3
3.530000E-8	1.000702E-2
3.535000E-8	1.135340E-2
3.540000E-8	1.288820E-2
3.545000E-8	1.456346E-2
3.550000E-8	1.632437E-2
3.555000E-8	1.818120E-2
3.560000E-8	2.013396E-2
3.565000E-8	2.216551E-2
3.570000E-8	2.425530E-2
3.575000E-8	2.639648E-2
3.580000E-8	2.855479E-2
3.585000E-8	3.072681E-2
3.590000E-8	3.290910E-2
3.595000E-8	3.505713E-2
3.600000E-8	3.715035E-2
3.605000E-8	3.918191E-2
3.610000E-8	4.108670E-2
3.615000E-8	4.284418E-2
3.620000E-8	4.449546E-2
3.625000E-8	4.598230E-2
3.630000E-8	4.722590E-2
3.635000E-8	4.827079E-2
3.640000E-8	4.916152E-2
3.645000E-8	4.985698E-2
3.650000E-8	5.032290E-2
3.655000E-8	5.059697E-2
3.660000E-8	5.068262E-2
3.665000E-8	5.055929E-2
3.670000E-8	5.024753E-2
3.675000E-8	4.975078E-2
3.680000E-8	4.909301E-2
3.685000E-8	4.830162E-2
3.690000E-8	4.734580E-2
3.695000E-8	4.621526E-2
3.700000E-8	4.494425E-2
3.705000E-8	4.354991E-2
3.710000E-8	4.198771E-2
3.715000E-8	4.028162E-2
3.720000E-8	3.847960E-2
3.725000E-8	3.657480E-2
3.730000E-8	3.456381E-2
3.735000E-8	3.249114E-2
3.740000E-8	3.037394E-2
3.745000E-8	2.823619E-2
3.750000E-8	2.611556E-2
3.755000E-8	2.401892E-2
3.760000E-8	2.195653E-2
3.765000E-8	1.997294E-2
3.770000E-8	1.810240E-2
3.775000E-8	1.634835E-2
3.780000E-8	1.473133E-2
3.785000E-8	1.323421E-2
3.790000E-8	1.186043E-2
3.795000E-8	1.066480E-2
3.800000E-8	9.630177E-3
3.805000E-8	8.722316E-3
3.810000E-8	7.972046E-3
3.815000E-8	7.393071E-3
3.820000E-8	6.968260E-3
3.825000E-8	6.714745E-3
3.830000E-8	6.646227E-3
3.835000E-8	6.769559E-3
3.840000E-8	7.074463E-3
3.845000E-8	7.567791E-3
3.850000E-8	8.239266E-3
3.855000E-8	9.102590E-3
3.860000E-8	1.015434E-2
3.865000E-8	1.133970E-2
3.870000E-8	1.265181E-2
3.875000E-8	1.412837E-2
3.880000E-8	1.571456E-2
3.885000E-8	1.737611E-2
3.890000E-8	1.912332E-2
3.895000E-8	2.093561E-2
3.900000E-8	2.276161E-2
3.905000E-8	2.460817E-2
3.910000E-8	2.647185E-2
3.915000E-8	2.832869E-2
3.920000E-8	3.015811E-2
3.925000E-8	3.194643E-2
3.930000E-8	3.366965E-2
3.935000E-8	3.533463E-2
3.940000E-8	3.692767E-2
3.945000E-8	3.841793E-2
3.950000E-8	3.981569E-2
3.955000E-8	4.111068E-2
3.960000E-8	4.228576E-2
3.965000E-8	4.333751E-2
3.970000E-8	4.425222E-2
3.975000E-8	4.500592E-2
3.980000E-8	4.558832E-2
3.985000E-8	4.599943E-2
3.990000E-8	4.623239E-2
3.995000E-8	4.627350E-2
4.000000E-8	4.614331E-2
4.005000E-8	4.582471E-2
4.010000E-8	4.531767E-2
4.015000E-8	4.465305E-2
4.020000E-8	4.383084E-2
4.025000E-8	4.284761E-2
4.030000E-8	4.171364E-2
4.035000E-8	4.046661E-2
4.040000E-8	3.910996E-2
4.045000E-8	3.763340E-2
4.050000E-8	3.605407E-2
4.055000E-8	3.441307E-2
4.060000E-8	3.272068E-2
4.065000E-8	3.098375E-2
4.070000E-8	2.921942E-2
4.075000E-8	2.742425E-2
4.080000E-8	2.562223E-2
4.085000E-8	2.382707E-2
4.090000E-8	2.206616E-2
4.095000E-8	2.034979E-2
4.100000E-8	1.867110E-2
4.105000E-8	1.703010E-2
4.110000E-8	1.547132E-2
4.115000E-8	1.400161E-2
4.120000E-8	1.265181E-2
4.125000E-8	1.142534E-2
4.130000E-8	1.033591E-2
4.135000E-8	9.369809E-3
4.140000E-8	8.544170E-3
4.145000E-8	7.879547E-3
4.150000E-8	7.389645E-3
4.155000E-8	7.064185E-3
4.160000E-8	6.910020E-3
4.165000E-8	6.916872E-3
4.170000E-8	7.081315E-3
4.175000E-8	7.403349E-3
4.180000E-8	7.872695E-3
4.185000E-8	8.527040E-3
4.190000E-8	9.362958E-3
4.195000E-8	1.033591E-2
4.200000E-8	1.144590E-2
4.205000E-8	1.271690E-2
4.210000E-8	1.412152E-2
4.215000E-8	1.561178E-2
4.220000E-8	1.719112E-2
4.225000E-8	1.885610E-2
4.230000E-8	2.058617E-2
4.235000E-8	2.235736E-2
4.240000E-8	2.413197E-2
4.245000E-8	2.586547E-2
4.250000E-8	2.757156E-2
4.255000E-8	2.926053E-2
4.260000E-8	3.087412E-2
4.265000E-8	3.239522E-2
4.270000E-8	3.383752E-2
4.275000E-8	3.519759E-2
4.280000E-8	3.646517E-2
4.285000E-8	3.763683E-2
4.290000E-8	3.867487E-2
4.295000E-8	3.957246E-2
4.300000E-8	4.034671E-2
4.305000E-8	4.097365E-2
4.310000E-8	4.143957E-2
4.315000E-8	4.174790E-2
4.320000E-8	4.190206E-2
4.325000E-8	4.188493E-2
4.330000E-8	4.169651E-2
4.335000E-8	4.137447E-2
4.340000E-8	4.092226E-2
4.345000E-8	4.032958E-2
4.350000E-8	3.959986E-2
4.355000E-8	3.877080E-2
4.360000E-8	3.784923E-2
4.365000E-8	3.683517E-2
4.370000E-8	3.572518E-2
4.375000E-8	3.452955E-2
4.380000E-8	3.327567E-2
4.385000E-8	3.197041E-2
4.390000E-8	3.061033E-2
4.395000E-8	2.922627E-2
4.400000E-8	2.781823E-2
4.405000E-8	2.634852E-2
4.410000E-8	2.484798E-2
4.415000E-8	2.337142E-2
4.420000E-8	2.190514E-2
4.425000E-8	2.042858E-2
4.430000E-8	1.896230E-2
4.435000E-8	1.754398E-2
4.440000E-8	1.616335E-2
4.445000E-8	1.483068E-2
4.450000E-8	1.355967E-2
4.455000E-8	1.237432E-2
4.460000E-8	1.127460E-2
4.465000E-8	1.029823E-2
4.470000E-8	9.482864E-3
4.475000E-8	8.818241E-3
4.480000E-8	8.297506E-3
4.485000E-8	7.958343E-3
4.490000E-8	7.787048E-3
4.495000E-8	7.769919E-3
4.500000E-8	7.917232E-3
4.505000E-8	8.211859E-3
4.510000E-8	8.622965E-3
4.515000E-8	9.160830E-3
4.520000E-8	9.842582E-3
4.525000E-8	1.061683E-2
4.530000E-8	1.146988E-2
4.535000E-8	1.242228E-2
4.540000E-8	1.348430E-2
4.545000E-8	1.464225E-2
4.550000E-8	1.589956E-2
4.555000E-8	1.724936E-2
4.560000E-8	1.866425E-2
4.565000E-8	2.013396E-2
4.570000E-8	2.165163E-2
4.575000E-8	2.320013E-2
4.580000E-8	2.475206E-2
4.585000E-8	2.626630E-2
4.590000E-8	2.772230E-2
4.595000E-8	2.910979E-2
4.600000E-8	3.041505E-2
4.605000E-8	3.162782E-2
4.610000E-8	3.273438E-2
4.615000E-8	3.374502E-2
4.620000E-8	3.466658E-2
4.625000E-8	3.546139E-2
4.630000E-8	3.614999E-2
4.635000E-8	3.674610E-2
4.640000E-8	3.722915E-2
4.645000E-8	3.761285E-2
4.650000E-8	3.790062E-2
4.655000E-8	3.807534E-2
4.660000E-8	3.811645E-2
4.665000E-8	3.803423E-2
4.670000E-8	3.783210E-2
4.675000E-8	3.749294E-2
4.680000E-8	3.702017E-2
4.685000E-8	3.642406E-2
4.690000E-8	3.567037E-2
4.695000E-8	3.481047E-2
4.700000E-8	3.386150E-2
4.705000E-8	3.280290E-2
4.710000E-8	3.164837E-2
4.715000E-8	3.046987E-2
4.720000E-8	2.926738E-2
4.725000E-8	2.803406E-2
4.730000E-8	2.677676E-2
4.735000E-8	2.549547E-2
4.740000E-8	2.419364E-2
4.745000E-8	2.290550E-2
4.750000E-8	2.163107E-2
4.755000E-8	2.032923E-2
4.760000E-8	1.902054E-2
4.765000E-8	1.774954E-2
4.770000E-8	1.652307E-2
4.775000E-8	1.533428E-2
4.780000E-8	1.420031E-2
4.785000E-8	1.314857E-2
4.790000E-8	1.219274E-2
4.795000E-8	1.134312E-2
4.800000E-8	1.062369E-2
4.805000E-8	1.005841E-2
4.810000E-8	9.647307E-3
4.815000E-8	9.383513E-3
4.820000E-8	9.260181E-3
4.825000E-8	9.260181E-3
4.830000E-8	9.386939E-3
4.835000E-8	9.657584E-3
4.840000E-8	1.003443E-2
4.845000E-8	1.049008E-2
4.850000E-8	1.104164E-2
4.855000E-8	1.170284E-2
4.860000E-8	1.244283E-2
4.865000E-8	1.324449E-2
4.870000E-8	1.409411E-2
4.875000E-8	1.501225E-2
4.880000E-8	1.598520E-2
4.885000E-8	1.699241E-2
4.890000E-8	1.802703E-2
4.895000E-8	1.909934E-2
4.900000E-8	2.020247E-2
4.905000E-8	2.130561E-2
4.910000E-8	2.243615E-2
4.915000E-8	2.360438E-2
4.920000E-8	2.477261E-2
4.925000E-8	2.594769E-2
4.930000E-8	2.712620E-2
4.935000E-8	2.828415E-2
4.940000E-8	2.940441E-2
4.945000E-8	3.050755E-2
4.950000E-8	3.152847E-2
4.955000E-8	3.242262E-2
4.960000E-8	3.320715E-2
4.965000E-8	3.385807E-2
4.970000E-8	3.434112E-2
4.975000E-8	3.466658E-2
4.980000E-8	3.486871E-2
4.985000E-8	3.492352E-2
4.990000E-8	3.481732E-2
4.995000E-8	3.460492E-2
5.000000E-8	3.429316E-2
5.005000E-8	3.389576E-2
5.010000E-8	3.344354E-2
5.015000E-8	3.296049E-2
5.020000E-8	3.241235E-2
5.025000E-8	3.182309E-2
5.030000E-8	3.120643E-2
5.035000E-8	3.053838E-2
5.040000E-8	2.980867E-2
5.045000E-8	2.899673E-2
5.050000E-8	2.809915E-2
5.055000E-8	2.710907E-2
5.060000E-8	2.603676E-2
5.065000E-8	2.490622E-2
5.070000E-8	2.373457E-2
5.075000E-8	2.248412E-2
5.080000E-8	2.121996E-2
5.085000E-8	2.000720E-2
5.090000E-8	1.881499E-2
5.095000E-8	1.765019E-2
5.100000E-8	1.656075E-2
5.105000E-8	1.555012E-2
5.110000E-8	1.461485E-2
5.115000E-8	1.377208E-2
5.120000E-8	1.302523E-2
5.125000E-8	1.236061E-2
5.130000E-8	1.177821E-2
5.135000E-8	1.127803E-2
5.140000E-8	1.086692E-2
5.145000E-8	1.055174E-2
5.150000E-8	1.033248E-2
5.155000E-8	1.020230E-2
5.160000E-8	1.016804E-2
5.165000E-8	1.023656E-2
5.170000E-8	1.041471E-2
5.175000E-8	1.068878E-2
5.180000E-8	1.107933E-2
5.185000E-8	1.155210E-2
5.190000E-8	1.210367E-2
5.195000E-8	1.274089E-2
5.200000E-8	1.342264E-2
5.205000E-8	1.415578E-2
5.210000E-8	1.497114E-2
5.215000E-8	1.585502E-2
5.220000E-8	1.676631E-2
5.225000E-8	1.771870E-2
5.230000E-8	1.872249E-2
5.235000E-8	1.978109E-2
5.240000E-8	2.088080E-2
5.245000E-8	2.200792E-2
5.250000E-8	2.313846E-2
5.255000E-8	2.425188E-2
5.260000E-8	2.534131E-2
5.265000E-8	2.637250E-2
5.270000E-8	2.732147E-2
5.275000E-8	2.819508E-2
5.280000E-8	2.896590E-2
5.285000E-8	2.961339E-2
5.290000E-8	3.015126E-2
5.295000E-8	3.059662E-2
5.300000E-8	3.094264E-2
5.305000E-8	3.119273E-2
5.310000E-8	3.137773E-2
5.315000E-8	3.147365E-2
5.320000E-8	3.148050E-2
5.325000E-8	3.143939E-2
5.330000E-8	3.133319E-2
5.335000E-8	3.113106E-2
5.340000E-8	3.086042E-2
5.345000E-8	3.052125E-2
5.350000E-8	3.007589E-2
5.355000E-8	2.954830E-2
5.360000E-8	2.896933E-2
5.365000E-8	2.831156E-2
5.370000E-8	2.755443E-2
5.375000E-8	2.674935E-2
5.380000E-8	2.592028E-2
5.385000E-8	2.506039E-2
5.390000E-8	2.416965E-2
5.395000E-8	2.327207E-2
5.400000E-8	2.238477E-2
5.405000E-8	2.149746E-2
5.410000E-8	2.059988E-2
5.415000E-8	1.969544E-2
5.420000E-8	1.880471E-2
5.425000E-8	1.791055E-2
5.430000E-8	1.701982E-2
5.435000E-8	1.615650E-2
5.440000E-8	1.530688E-2
5.445000E-8	1.448124E-2
5.450000E-8	1.372754E-2
5.455000E-8	1.306977E-2
5.460000E-8	1.247709E-2
5.465000E-8	1.195293E-2
5.470000E-8	1.155210E-2
5.475000E-8	1.125405E-2
5.480000E-8	1.104507E-2
5.485000E-8	1.097655E-2
5.490000E-8	1.102794E-2
5.495000E-8	1.113072E-2
5.500000E-8	1.131229E-2
5.505000E-8	1.158979E-2
5.510000E-8	1.191525E-2
5.515000E-8	1.228524E-2
5.520000E-8	1.272718E-2
5.525000E-8	1.320681E-2
5.530000E-8	1.374467E-2
5.535000E-8	1.434763E-2
5.540000E-8	1.498142E-2
5.545000E-8	1.564947E-2
5.550000E-8	1.638603E-2
5.555000E-8	1.717056E-2
5.560000E-8	1.797907E-2
5.565000E-8	1.881156E-2
5.570000E-8	1.965433E-2
5.575000E-8	2.048340E-2
5.580000E-8	2.129876E-2
5.585000E-8	2.208671E-2
5.590000E-8	2.281300E-2
5.595000E-8	2.350503E-2
5.600000E-8	2.415938E-2
5.605000E-8	2.475206E-2
5.610000E-8	2.529677E-2
5.615000E-8	2.583121E-2
5.620000E-8	2.632797E-2
5.625000E-8	2.677676E-2
5.630000E-8	2.722555E-2
5.635000E-8	2.766064E-2
5.640000E-8	2.800665E-2
5.645000E-8	2.828072E-2
5.650000E-8	2.850683E-2
5.655000E-8	2.862674E-2
5.660000E-8	2.862674E-2
5.665000E-8	2.853081E-2
5.670000E-8	2.832869E-2
5.675000E-8	2.802036E-2
5.680000E-8	2.761953E-2
5.685000E-8	2.714333E-2
5.690000E-8	2.658833E-2
5.695000E-8	2.596825E-2
5.700000E-8	2.533788E-2
5.705000E-8	2.470752E-2
5.710000E-8	2.405660E-2
5.715000E-8	2.339198E-2
5.720000E-8	2.272050E-2
5.725000E-8	2.202847E-2
5.730000E-8	2.131931E-2
5.735000E-8	2.058275E-2
5.740000E-8	1.977766E-2
5.745000E-8	1.894517E-2
5.750000E-8	1.813666E-2
5.755000E-8	1.734871E-2
5.760000E-8	1.658473E-2
5.765000E-8	1.587215E-2
5.770000E-8	1.519040E-2
5.775000E-8	1.456688E-2
5.780000E-8	1.403930E-2
5.785000E-8	1.356995E-2
5.790000E-8	1.314514E-2
5.795000E-8	1.278885E-2
5.800000E-8	1.249422E-2
5.805000E-8	1.223728E-2
5.810000E-8	1.205571E-2
5.815000E-8	1.192210E-2
5.820000E-8	1.183645E-2
5.825000E-8	1.181589E-2
5.830000E-8	1.187414E-2
5.835000E-8	1.201460E-2
5.840000E-8	1.226811E-2
5.845000E-8	1.258672E-2
5.850000E-8	1.293616E-2
5.855000E-8	1.336097E-2
5.860000E-8	1.386115E-2
5.865000E-8	1.437846E-2
5.870000E-8	1.491290E-2
5.875000E-8	1.548845E-2
5.880000E-8	1.606400E-2
5.885000E-8	1.662927E-2
5.890000E-8	1.725278E-2
5.895000E-8	1.790713E-2
5.900000E-8	1.853407E-2
5.905000E-8	1.916100E-2
5.910000E-8	1.984961E-2
5.915000E-8	2.056562E-2
5.920000E-8	2.125765E-2
5.925000E-8	2.192912E-2
5.930000E-8	2.258004E-2
5.935000E-8	2.321383E-2
5.940000E-8	2.381679E-2
5.945000E-8	2.435123E-2
5.950000E-8	2.483085E-2
5.955000E-8	2.527279E-2
5.960000E-8	2.562908E-2
5.965000E-8	2.587917E-2
5.970000E-8	2.604704E-2
5.975000E-8	2.613269E-2
5.980000E-8	2.614639E-2
5.985000E-8	2.611213E-2
5.990000E-8	2.601964E-2
5.995000E-8	2.585862E-2
6.000000E-8	2.565992E-2
6.005000E-8	2.543381E-2
6.010000E-8	2.515974E-2
6.015000E-8	2.484113E-2
6.020000E-8	2.449854E-2
6.025000E-8	2.413540E-2
6.030000E-8	2.372429E-2
6.035000E-8	2.326179E-2
6.040000E-8	2.276161E-2
6.045000E-8	2.223403E-2
6.050000E-8	2.165163E-2
6.055000E-8	2.102469E-2
6.060000E-8	2.037719E-2
6.065000E-8	1.969202E-2
6.070000E-8	1.898628E-2
6.075000E-8	1.828398E-2
6.080000E-8	1.761935E-2
6.085000E-8	1.699241E-2
6.090000E-8	1.640659E-2
6.095000E-8	1.587900E-2
6.100000E-8	1.540280E-2
6.105000E-8	1.499170E-2
6.110000E-8	1.464911E-2
6.115000E-8	1.435448E-2
6.120000E-8	1.408041E-2
6.125000E-8	1.385773E-2
6.130000E-8	1.367615E-2
6.135000E-8	1.351856E-2
6.140000E-8	1.336097E-2
6.145000E-8	1.321023E-2
6.150000E-8	1.308005E-2
6.155000E-8	1.298412E-2
6.160000E-8	1.288820E-2
6.165000E-8	1.280598E-2
6.170000E-8	1.275459E-2
6.175000E-8	1.276487E-2
6.180000E-8	1.286079E-2
6.185000E-8	1.303894E-2
6.190000E-8	1.327875E-2
6.195000E-8	1.357680E-2
6.200000E-8	1.396393E-2
6.205000E-8	1.442300E-2
6.210000E-8	1.491633E-2
6.215000E-8	1.542336E-2
6.220000E-8	1.596807E-2
6.225000E-8	1.652649E-2
6.230000E-8	1.707121E-2
6.235000E-8	1.760565E-2
6.240000E-8	1.812981E-2
6.245000E-8	1.863342E-2
6.250000E-8	1.911647E-2
6.255000E-8	1.958239E-2
6.260000E-8	2.005516E-2
6.265000E-8	2.051080E-2
6.270000E-8	2.093219E-2
6.275000E-8	2.133987E-2
6.280000E-8	2.173385E-2
6.285000E-8	2.207301E-2
6.290000E-8	2.236078E-2
6.295000E-8	2.261087E-2
6.300000E-8	2.281300E-2
6.305000E-8	2.296717E-2
6.310000E-8	2.309735E-2
6.315000E-8	2.321383E-2
6.320000E-8	2.327550E-2
6.325000E-8	2.328235E-2
6.330000E-8	2.327207E-2
6.335000E-8	2.321383E-2
6.340000E-8	2.310420E-2
6.345000E-8	2.297059E-2
6.350000E-8	2.278217E-2
6.355000E-8	2.252523E-2
6.360000E-8	2.223403E-2
6.365000E-8	2.192570E-2
6.370000E-8	2.155913E-2
6.375000E-8	2.113089E-2
6.380000E-8	2.068895E-2
6.385000E-8	2.019562E-2
6.390000E-8	1.965776E-2
6.395000E-8	1.911304E-2
6.400000E-8	1.855119E-2
6.405000E-8	1.797907E-2
6.410000E-8	1.741723E-2
6.415000E-8	1.687593E-2
6.420000E-8	1.634492E-2
6.425000E-8	1.584474E-2
6.430000E-8	1.536854E-2
6.435000E-8	1.489234E-2
6.440000E-8	1.447439E-2
6.445000E-8	1.412837E-2
6.450000E-8	1.381661E-2
6.455000E-8	1.352884E-2
6.460000E-8	1.330958E-2
6.465000E-8	1.312458E-2
6.470000E-8	1.294986E-2
6.475000E-8	1.283338E-2
6.480000E-8	1.277172E-2
6.485000E-8	1.270663E-2
6.490000E-8	1.267922E-2
6.495000E-8	1.269635E-2
6.500000E-8	1.273061E-2
6.505000E-8	1.279913E-2
6.510000E-8	1.291903E-2
6.515000E-8	1.305607E-2
6.520000E-8	1.324449E-2
6.525000E-8	1.350828E-2
6.530000E-8	1.380976E-2
6.535000E-8	1.414550E-2
6.540000E-8	1.454633E-2
6.545000E-8	1.497457E-2
6.550000E-8	1.543363E-2
6.555000E-8	1.593039E-2
6.560000E-8	1.646140E-2
6.565000E-8	1.697529E-2
6.570000E-8	1.750287E-2
6.575000E-8	1.803046E-2
6.580000E-8	1.851351E-2
6.585000E-8	1.895888E-2
6.590000E-8	1.936998E-2
6.595000E-8	1.973313E-2
6.600000E-8	2.005173E-2
6.605000E-8	2.032238E-2
6.610000E-8	2.052793E-2
6.615000E-8	2.069238E-2
6.620000E-8	2.085682E-2
6.625000E-8	2.100756E-2
6.630000E-8	2.113774E-2
6.635000E-8	2.126450E-2
6.640000E-8	2.136385E-2
6.645000E-8	2.143237E-2
6.650000E-8	2.150089E-2
6.655000E-8	2.154200E-2
6.660000E-8	2.151459E-2
6.665000E-8	2.144265E-2
6.670000E-8	2.133644E-2
6.675000E-8	2.116172E-2
6.680000E-8	2.093219E-2
6.685000E-8	2.067182E-2
6.690000E-8	2.035664E-2
6.695000E-8	1.998322E-2
6.700000E-8	1.958239E-2
6.705000E-8	1.917813E-2
6.710000E-8	1.876703E-2
6.715000E-8	1.836962E-2
6.720000E-8	1.797907E-2
6.725000E-8	1.760908E-2
6.730000E-8	1.725621E-2
6.735000E-8	1.691019E-2
6.740000E-8	1.657788E-2
6.745000E-8	1.624900E-2
6.750000E-8	1.593381E-2
6.755000E-8	1.561178E-2
6.760000E-8	1.528290E-2
6.765000E-8	1.494716E-2
6.770000E-8	1.461485E-2
6.775000E-8	1.428596E-2
6.780000E-8	1.397078E-2
6.785000E-8	1.367273E-2
6.790000E-8	1.341236E-2
6.795000E-8	1.316570E-2
6.800000E-8	1.294644E-2
6.805000E-8	1.278200E-2
6.810000E-8	1.266894E-2
6.815000E-8	1.258329E-2
6.820000E-8	1.253876E-2
6.825000E-8	1.255589E-2
6.830000E-8	1.263811E-2
6.835000E-8	1.274774E-2
6.840000E-8	1.288477E-2
6.845000E-8	1.306977E-2
6.850000E-8	1.328903E-2
6.855000E-8	1.353227E-2
6.860000E-8	1.378921E-2
6.865000E-8	1.405985E-2
6.870000E-8	1.434078E-2
6.875000E-8	1.464225E-2
6.880000E-8	1.497799E-2
6.885000E-8	1.531373E-2
6.890000E-8	1.562891E-2
6.895000E-8	1.595094E-2
6.900000E-8	1.631751E-2
6.905000E-8	1.666696E-2
6.910000E-8	1.698899E-2
6.915000E-8	1.730417E-2
6.920000E-8	1.760565E-2
6.925000E-8	1.787629E-2
6.930000E-8	1.814694E-2
6.935000E-8	1.839360E-2
6.940000E-8	1.858203E-2
6.945000E-8	1.874990E-2
6.950000E-8	1.890406E-2
6.955000E-8	1.902054E-2
6.960000E-8	1.915073E-2
6.965000E-8	1.929119E-2
6.970000E-8	1.939739E-2
6.975000E-8	1.949674E-2
6.980000E-8	1.960294E-2
6.985000E-8	1.967146E-2
6.990000E-8	1.970229E-2
6.995000E-8	1.971257E-2
7.000000E-8	1.968859E-2
7.005000E-8	1.962692E-2
7.010000E-8	1.953443E-2
7.015000E-8	1.938026E-2
7.020000E-8	1.916100E-2
7.025000E-8	1.892119E-2
7.030000E-8	1.867795E-2
7.035000E-8	1.841759E-2
7.040000E-8	1.813666E-2
7.045000E-8	1.785917E-2
7.050000E-8	1.760908E-2
7.055000E-8	1.739667E-2
7.060000E-8	1.717741E-2
7.065000E-8	1.695473E-2
7.070000E-8	1.676288E-2
7.075000E-8	1.657446E-2
7.080000E-8	1.634492E-2
7.085000E-8	1.610168E-2
7.090000E-8	1.586187E-2
7.095000E-8	1.559123E-2
7.100000E-8	1.529317E-2
7.105000E-8	1.498827E-2
7.110000E-8	1.468679E-2
7.115000E-8	1.438189E-2
7.120000E-8	1.409411E-2
7.125000E-8	1.382689E-2
7.130000E-8	1.358708E-2
7.135000E-8	1.337467E-2
7.140000E-8	1.321366E-2
7.145000E-8	1.309033E-2
7.150000E-8	1.300468E-2
7.155000E-8	1.294986E-2
7.160000E-8	1.291561E-2
7.165000E-8	1.290875E-2
7.170000E-8	1.294301E-2
7.175000E-8	1.299783E-2
7.180000E-8	1.308347E-2
7.185000E-8	1.320681E-2
7.190000E-8	1.334384E-2
7.195000E-8	1.348430E-2
7.200000E-8	1.366245E-2
7.205000E-8	1.388171E-2
7.210000E-8	1.412494E-2
7.215000E-8	1.438531E-2
7.220000E-8	1.466624E-2
7.225000E-8	1.497457E-2
7.230000E-8	1.528632E-2
7.235000E-8	1.558095E-2
7.240000E-8	1.587215E-2
7.245000E-8	1.617020E-2
7.250000E-8	1.646825E-2
7.255000E-8	1.674918E-2
7.260000E-8	1.700269E-2
7.265000E-8	1.724936E-2
7.270000E-8	1.749602E-2
7.275000E-8	1.771185E-2
7.280000E-8	1.787972E-2
7.285000E-8	1.802703E-2
7.290000E-8	1.813666E-2
7.295000E-8	1.818462E-2
7.300000E-8	1.823944E-2
7.305000E-8	1.830453E-2
7.310000E-8	1.829083E-2
7.315000E-8	1.825314E-2
7.320000E-8	1.826342E-2
7.325000E-8	1.826342E-2
7.330000E-8	1.822574E-2
7.335000E-8	1.818462E-2
7.340000E-8	1.813666E-2
7.345000E-8	1.801333E-2
7.350000E-8	1.785574E-2
7.355000E-8	1.772213E-2
7.360000E-8	1.756111E-2
7.365000E-8	1.734186E-2
7.370000E-8	1.710890E-2
7.375000E-8	1.691019E-2
7.380000E-8	1.670121E-2
7.385000E-8	1.645798E-2
7.390000E-8	1.623872E-2
7.395000E-8	1.605372E-2
7.400000E-8	1.585159E-2
7.405000E-8	1.562206E-2
7.410000E-8	1.541308E-2
7.415000E-8	1.520753E-2
7.420000E-8	1.496429E-2
7.425000E-8	1.469707E-2
7.430000E-8	1.444698E-2
7.435000E-8	1.422772E-2
7.440000E-8	1.400504E-2
7.445000E-8	1.378578E-2
7.450000E-8	1.361106E-2
7.455000E-8	1.347060E-2
7.460000E-8	1.336097E-2
7.465000E-8	1.328218E-2
7.470000E-8	1.321023E-2
7.475000E-8	1.316570E-2
7.480000E-8	1.315884E-2
7.485000E-8	1.314514E-2
7.490000E-8	1.314514E-2
7.495000E-8	1.315884E-2
7.500000E-8	1.318625E-2
7.505000E-8	1.322736E-2
7.510000E-8	1.327190E-2
7.515000E-8	1.333356E-2
7.520000E-8	1.341236E-2
7.525000E-8	1.350828E-2
7.530000E-8	1.361106E-2
7.535000E-8	1.373097E-2
7.540000E-8	1.388856E-2
7.545000E-8	1.407013E-2
7.550000E-8	1.425513E-2
7.555000E-8	1.443327E-2
7.560000E-8	1.461827E-2
7.565000E-8	1.482383E-2
7.570000E-8	1.502938E-2
7.575000E-8	1.523151E-2
7.580000E-8	1.542678E-2
7.585000E-8	1.561863E-2
7.590000E-8	1.578308E-2
7.595000E-8	1.592011E-2
7.600000E-8	1.602974E-2
7.605000E-8	1.612909E-2
7.610000E-8	1.623529E-2
7.615000E-8	1.634492E-2
7.620000E-8	1.643742E-2
7.625000E-8	1.653677E-2
7.630000E-8	1.666353E-2
7.635000E-8	1.678001E-2
7.640000E-8	1.688279E-2
7.645000E-8	1.698556E-2
7.650000E-8	1.707806E-2
7.655000E-8	1.713973E-2
7.660000E-8	1.717741E-2
7.665000E-8	1.718426E-2
7.670000E-8	1.714658E-2
7.675000E-8	1.705066E-2
7.680000E-8	1.692047E-2
7.685000E-8	1.679029E-2
7.690000E-8	1.664640E-2
7.695000E-8	1.647511E-2
7.700000E-8	1.630381E-2
7.705000E-8	1.613252E-2
7.710000E-8	1.595437E-2
7.715000E-8	1.579678E-2
7.720000E-8	1.567002E-2
7.725000E-8	1.551928E-2
7.730000E-8	1.537197E-2
7.735000E-8	1.526234E-2
7.740000E-8	1.514586E-2
7.745000E-8	1.501568E-2
7.750000E-8	1.488892E-2
7.755000E-8	1.476901E-2
7.760000E-8	1.462170E-2
7.765000E-8	1.445726E-2
7.770000E-8	1.428596E-2
7.775000E-8	1.410782E-2
7.780000E-8	1.392282E-2
7.785000E-8	1.374467E-2
7.790000E-8	1.357338E-2
7.795000E-8	1.340893E-2
7.800000E-8	1.327875E-2
7.805000E-8	1.317597E-2
7.810000E-8	1.308690E-2
7.815000E-8	1.303209E-2
7.820000E-8	1.301838E-2
7.825000E-8	1.299098E-2
7.830000E-8	1.298412E-2
7.835000E-8	1.302523E-2
7.840000E-8	1.306292E-2
7.845000E-8	1.308347E-2
7.850000E-8	1.314514E-2
7.855000E-8	1.322394E-2
7.860000E-8	1.328218E-2
7.865000E-8	1.336440E-2
7.870000E-8	1.347060E-2
7.875000E-8	1.357680E-2
7.880000E-8	1.370699E-2
7.885000E-8	1.384745E-2
7.890000E-8	1.399476E-2
7.895000E-8	1.415920E-2
7.900000E-8	1.435105E-2
7.905000E-8	1.453948E-2
7.910000E-8	1.472448E-2
7.915000E-8	1.491975E-2
7.920000E-8	1.509790E-2
7.925000E-8	1.524521E-2
7.930000E-8	1.539595E-2
7.935000E-8	1.553984E-2
7.940000E-8	1.564604E-2
7.945000E-8	1.572484E-2
7.950000E-8	1.580363E-2
7.955000E-8	1.585845E-2
7.960000E-8	1.587557E-2
7.965000E-8	1.588928E-2
7.970000E-8	1.589956E-2
7.975000E-8	1.585502E-2
7.980000E-8	1.578308E-2
7.985000E-8	1.572484E-2
7.990000E-8	1.565632E-2
7.995000E-8	1.555697E-2
8.000000E-8	1.547475E-2
8.005000E-8	1.541308E-2
8.010000E-8	1.531715E-2
8.015000E-8	1.521095E-2
8.020000E-8	1.513216E-2
8.025000E-8	1.505679E-2
8.030000E-8	1.496771E-2
8.035000E-8	1.488549E-2
8.040000E-8	1.481012E-2
8.045000E-8	1.471077E-2
8.050000E-8	1.460114E-2
8.055000E-8	1.451892E-2
8.060000E-8	1.442985E-2
8.065000E-8	1.431679E-2
8.070000E-8	1.420717E-2
8.075000E-8	1.411124E-2
8.080000E-8	1.400161E-2
8.085000E-8	1.388513E-2
8.090000E-8	1.376523E-2
8.095000E-8	1.365902E-2
8.100000E-8	1.357338E-2
8.105000E-8	1.347745E-2
8.110000E-8	1.336097E-2
8.115000E-8	1.324792E-2
8.120000E-8	1.315542E-2
8.125000E-8	1.308690E-2
8.130000E-8	1.300810E-2
8.135000E-8	1.293274E-2
8.140000E-8	1.287449E-2
8.145000E-8	1.282996E-2
8.150000E-8	1.278542E-2
8.155000E-8	1.275459E-2
8.160000E-8	1.274774E-2
8.165000E-8	1.274431E-2
8.170000E-8	1.274431E-2
8.175000E-8	1.276487E-2
8.180000E-8	1.278542E-2
8.185000E-8	1.280940E-2
8.190000E-8	1.285394E-2
8.195000E-8	1.292246E-2
8.200000E-8	1.298412E-2
8.205000E-8	1.304922E-2
8.210000E-8	1.313144E-2
8.215000E-8	1.322394E-2
8.220000E-8	1.328560E-2
8.225000E-8	1.331986E-2
8.230000E-8	1.334384E-2
8.235000E-8	1.337467E-2
8.240000E-8	1.340893E-2
8.245000E-8	1.343977E-2
8.250000E-8	1.348430E-2
8.255000E-8	1.355967E-2
8.260000E-8	1.364875E-2
8.265000E-8	1.375837E-2
8.270000E-8	1.389884E-2
8.275000E-8	1.407013E-2
8.280000E-8	1.425170E-2
8.285000E-8	1.441615E-2
8.290000E-8	1.458059E-2
8.295000E-8	1.476901E-2
8.300000E-8	1.491290E-2
8.305000E-8	1.497457E-2
8.310000E-8	1.497799E-2
8.315000E-8	1.495058E-2
8.320000E-8	1.489920E-2
8.325000E-8	1.481355E-2
8.330000E-8	1.467994E-2
8.335000E-8	1.454976E-2
8.340000E-8	1.447096E-2
8.345000E-8	1.440244E-2
8.350000E-8	1.432365E-2
8.355000E-8	1.428254E-2
8.360000E-8	1.429624E-2
8.365000E-8	1.430309E-2
8.370000E-8	1.428939E-2
8.375000E-8	1.427568E-2
8.380000E-8	1.424485E-2
8.385000E-8	1.419004E-2
8.390000E-8	1.413180E-2
8.395000E-8	1.404615E-2
8.400000E-8	1.392624E-2
8.405000E-8	1.379263E-2
8.410000E-8	1.369671E-2
8.415000E-8	1.360421E-2
8.420000E-8	1.351171E-2
8.425000E-8	1.344662E-2
8.430000E-8	1.339523E-2
8.435000E-8	1.336782E-2
8.440000E-8	1.336097E-2
8.445000E-8	1.334384E-2
8.450000E-8	1.329588E-2
8.455000E-8	1.324449E-2
8.460000E-8	1.318625E-2
8.465000E-8	1.308347E-2
8.470000E-8	1.295672E-2
8.475000E-8	1.283681E-2
8.480000E-8	1.271690E-2
8.485000E-8	1.257302E-2
8.490000E-8	1.243941E-2
8.495000E-8	1.232635E-2
8.500000E-8	1.222700E-2
8.505000E-8	1.214478E-2
8.510000E-8	1.210024E-2
8.515000E-8	1.208654E-2
8.520000E-8	1.210024E-2
8.525000E-8	1.214135E-2
8.530000E-8	1.220987E-2
8.535000E-8	1.229209E-2
8.540000E-8	1.239144E-2
8.545000E-8	1.249765E-2
8.550000E-8	1.259700E-2
8.555000E-8	1.269292E-2
8.560000E-8	1.281283E-2
8.565000E-8	1.292931E-2
8.570000E-8	1.301838E-2
8.575000E-8	1.309033E-2
8.580000E-8	1.316227E-2
8.585000E-8	1.321708E-2
8.590000E-8	1.325134E-2
8.595000E-8	1.327532E-2
8.600000E-8	1.328560E-2
8.605000E-8	1.328560E-2
8.610000E-8	1.328560E-2
8.615000E-8	1.329245E-2
8.620000E-8	1.329588E-2
8.625000E-8	1.326847E-2
8.630000E-8	1.324792E-2
8.635000E-8	1.325477E-2
8.640000E-8	1.326162E-2
8.645000E-8	1.325134E-2
8.650000E-8	1.327190E-2
8.655000E-8	1.331301E-2
8.660000E-8	1.333356E-2
8.665000E-8	1.333014E-2
8.670000E-8	1.335412E-2
8.675000E-8	1.340893E-2
8.680000E-8	1.344319E-2
8.685000E-8	1.345347E-2
8.690000E-8	1.347060E-2
8.695000E-8	1.348088E-2
8.700000E-8	1.348430E-2
8.705000E-8	1.347745E-2
8.710000E-8	1.345004E-2
8.715000E-8	1.340893E-2
8.720000E-8	1.335755E-2
8.725000E-8	1.330616E-2
8.730000E-8	1.323421E-2
8.735000E-8	1.314171E-2
8.740000E-8	1.305264E-2
8.745000E-8	1.296357E-2
8.750000E-8	1.285737E-2
8.755000E-8	1.273403E-2
8.760000E-8	1.259015E-2
8.765000E-8	1.245996E-2
8.770000E-8	1.236404E-2
8.775000E-8	1.225783E-2
8.780000E-8	1.212765E-2
8.785000E-8	1.202487E-2
8.790000E-8	1.194608E-2
8.795000E-8	1.187071E-2
8.800000E-8	1.182275E-2
8.805000E-8	1.180562E-2
8.810000E-8	1.177478E-2
8.815000E-8	1.174053E-2
8.820000E-8	1.172682E-2
8.825000E-8	1.170969E-2
8.830000E-8	1.164117E-2
8.835000E-8	1.157266E-2
8.840000E-8	1.154525E-2
8.845000E-8	1.150071E-2
8.850000E-8	1.143905E-2
8.855000E-8	1.138766E-2
8.860000E-8	1.138081E-2
8.865000E-8	1.140136E-2
8.870000E-8	1.145618E-2
8.875000E-8	1.153497E-2
8.880000E-8	1.163090E-2
8.885000E-8	1.177478E-2
8.890000E-8	1.194608E-2
8.895000E-8	1.211395E-2
8.900000E-8	1.226126E-2
8.905000E-8	1.240515E-2
8.910000E-8	1.252848E-2
8.915000E-8	1.263468E-2
8.920000E-8	1.272718E-2
8.925000E-8	1.279227E-2
8.930000E-8	1.281283E-2
8.935000E-8	1.283681E-2
8.940000E-8	1.287449E-2
8.945000E-8	1.289162E-2
8.950000E-8	1.288477E-2
8.955000E-8	1.289848E-2
8.960000E-8	1.291903E-2
8.965000E-8	1.292246E-2
8.970000E-8	1.292246E-2
8.975000E-8	1.292246E-2
8.980000E-8	1.292246E-2
8.985000E-8	1.292931E-2
8.990000E-8	1.293274E-2
8.995000E-8	1.291903E-2
9.000000E-8	1.290875E-2
9.005000E-8	1.289162E-2
9.010000E-8	1.284366E-2
9.015000E-8	1.280255E-2
9.020000E-8	1.277172E-2
9.025000E-8	1.272376E-2
9.030000E-8	1.266209E-2
9.035000E-8	1.261413E-2
9.040000E-8	1.257302E-2
9.045000E-8	1.254561E-2
9.050000E-8	1.253876E-2
9.055000E-8	1.252163E-2
9.060000E-8	1.247367E-2
9.065000E-8	1.245311E-2
9.070000E-8	1.245654E-2
9.075000E-8	1.242913E-2
9.080000E-8	1.238459E-2
9.085000E-8	1.234006E-2
9.090000E-8	1.228524E-2
9.095000E-8	1.223385E-2
9.100000E-8	1.218247E-2
9.105000E-8	1.213108E-2
9.110000E-8	1.207626E-2
9.115000E-8	1.200774E-2
9.120000E-8	1.193238E-2
9.125000E-8	1.187756E-2
9.130000E-8	1.181932E-2
9.135000E-8	1.174395E-2
9.140000E-8	1.166858E-2
9.145000E-8	1.162062E-2
9.150000E-8	1.157951E-2
9.155000E-8	1.149729E-2
9.160000E-8	1.140821E-2
9.165000E-8	1.135683E-2
9.170000E-8	1.132257E-2
9.175000E-8	1.128488E-2
9.180000E-8	1.125405E-2
9.185000E-8	1.121636E-2
9.190000E-8	1.120266E-2
9.195000E-8	1.124035E-2
9.200000E-8	1.128488E-2
9.205000E-8	1.128831E-2
9.210000E-8	1.129173E-2
9.215000E-8	1.134312E-2
9.220000E-8	1.140479E-2
9.225000E-8	1.145275E-2
9.230000E-8	1.151099E-2
9.235000E-8	1.158293E-2
9.240000E-8	1.162747E-2
9.245000E-8	1.167543E-2
9.250000E-8	1.176451E-2
9.255000E-8	1.185701E-2
9.260000E-8	1.193238E-2
9.265000E-8	1.201117E-2
9.270000E-8	1.208311E-2
9.275000E-8	1.214135E-2
9.280000E-8	1.221330E-2
9.285000E-8	1.229895E-2
9.290000E-8	1.234348E-2
9.295000E-8	1.236404E-2
9.300000E-8	1.238459E-2
9.305000E-8	1.237432E-2
9.310000E-8	1.232293E-2
9.315000E-8	1.227496E-2
9.320000E-8	1.222358E-2
9.325000E-8	1.213450E-2
9.330000E-8	1.203173E-2
9.335000E-8	1.194950E-2
9.340000E-8	1.187414E-2
9.345000E-8	1.182617E-2
9.350000E-8	1.181589E-2
9.355000E-8	1.180904E-2
9.360000E-8	1.180562E-2
9.365000E-8	1.183645E-2
9.370000E-8	1.185358E-2
9.375000E-8	1.185015E-2
9.380000E-8	1.186043E-2
9.385000E-8	1.186043E-2
9.390000E-8	1.182275E-2
9.395000E-8	1.177478E-2
9.400000E-8	1.173025E-2
9.405000E-8	1.169941E-2
9.410000E-8	1.166858E-2
9.415000E-8	1.163090E-2
9.420000E-8	1.157951E-2
9.425000E-8	1.154182E-2
9.430000E-8	1.153155E-2
9.435000E-8	1.151442E-2
9.440000E-8	1.148701E-2
9.445000E-8	1.146645E-2
9.450000E-8	1.143220E-2
9.455000E-8	1.139451E-2
9.460000E-8	1.139108E-2
9.465000E-8	1.141164E-2
9.470000E-8	1.141849E-2
9.475000E-8	1.141507E-2
9.480000E-8	1.140821E-2
9.485000E-8	1.140136E-2
9.490000E-8	1.138423E-2
9.495000E-8	1.136025E-2
9.500000E-8	1.132599E-2
9.505000E-8	1.127803E-2
9.510000E-8	1.123692E-2
9.515000E-8	1.118553E-2
9.520000E-8	1.115127E-2
9.525000E-8	1.114099E-2
9.530000E-8	1.114785E-2
9.535000E-8	1.113414E-2
9.540000E-8	1.112729E-2
9.545000E-8	1.114785E-2
9.550000E-8	1.116155E-2
9.555000E-8	1.116840E-2
9.560000E-8	1.120266E-2
9.565000E-8	1.121979E-2
9.570000E-8	1.119238E-2
9.575000E-8	1.114785E-2
9.580000E-8	1.111359E-2
9.585000E-8	1.108618E-2
9.590000E-8	1.104850E-2
9.595000E-8	1.100053E-2
9.600000E-8	1.096285E-2
9.605000E-8	1.094572E-2
9.610000E-8	1.096285E-2
9.615000E-8	1.101081E-2
9.620000E-8	1.107933E-2
9.625000E-8	1.115812E-2
9.630000E-8	1.125405E-2
9.635000E-8	1.137053E-2
9.640000E-8	1.147331E-2
9.645000E-8	1.155895E-2
9.650000E-8	1.163090E-2
9.655000E-8	1.169256E-2
9.660000E-8	1.174738E-2
9.665000E-8	1.180562E-2
9.670000E-8	1.184330E-2
9.675000E-8	1.185358E-2
9.680000E-8	1.188099E-2
9.685000E-8	1.192552E-2
9.690000E-8	1.194950E-2
9.695000E-8	1.195293E-2
9.700000E-8	1.196663E-2
9.705000E-8	1.195636E-2
9.710000E-8	1.190839E-2
9.715000E-8	1.185015E-2
9.720000E-8	1.178164E-2
9.725000E-8	1.166858E-2
9.730000E-8	1.153155E-2
9.735000E-8	1.139451E-2
9.740000E-8	1.123692E-2
9.745000E-8	1.106220E-2
9.750000E-8	1.088748E-2
9.755000E-8	1.070248E-2
9.760000E-8	1.052776E-2
9.765000E-8	1.042156E-2
9.770000E-8	1.035304E-2
9.775000E-8	1.028795E-2
9.780000E-8	1.026397E-2
9.785000E-8	1.027424E-2
9.790000E-8	1.029137E-2
9.795000E-8	1.031878E-2
9.800000E-8	1.035989E-2
9.805000E-8	1.039415E-2
9.810000E-8	1.041128E-2
9.815000E-8	1.044211E-2
9.820000E-8	1.046609E-2
9.825000E-8	1.046609E-2
9.830000E-8	1.046609E-2
9.835000E-8	1.046267E-2
9.840000E-8	1.044211E-2
9.845000E-8	1.043869E-2
9.850000E-8	1.043869E-2
9.855000E-8	1.041813E-2
9.860000E-8	1.041128E-2
9.865000E-8	1.042156E-2
9.870000E-8	1.040443E-2
9.875000E-8	1.038387E-2
9.880000E-8	1.036674E-2
9.885000E-8	1.033934E-2
9.890000E-8	1.029137E-2
9.895000E-8	1.023999E-2
9.900000E-8	1.020915E-2
9.905000E-8	1.018860E-2
9.910000E-8	1.015776E-2
9.915000E-8	1.015091E-2
9.920000E-8	1.016462E-2
9.925000E-8	1.018860E-2
9.930000E-8	1.022971E-2
9.935000E-8	1.028110E-2
9.940000E-8	1.034961E-2
9.945000E-8	1.042841E-2
9.950000E-8	1.051406E-2
9.955000E-8	1.059970E-2
9.960000E-8	1.068193E-2
9.965000E-8	1.073674E-2
9.970000E-8	1.077100E-2
9.975000E-8	1.079155E-2
9.980000E-8	1.079841E-2
9.985000E-8	1.079155E-2
9.990000E-8	1.080183E-2
9.995000E-8	1.080183E-2
1.000000E-7	1.078128E-2
1.000500E-7	1.078470E-2
1.001000E-7	1.080526E-2
1.001500E-7	1.079155E-2
1.002000E-7	1.079155E-2
1.002500E-7	1.080183E-2
1.003000E-7	1.077442E-2
1.003500E-7	1.072646E-2
1.004000E-7	1.069905E-2
1.004500E-7	1.066137E-2
1.005000E-7	1.058600E-2
1.005500E-7	1.050035E-2
1.006000E-7	1.045239E-2
1.006500E-7	1.041128E-2
1.007000E-7	1.035989E-2
1.007500E-7	1.030508E-2
1.008000E-7	1.028452E-2
1.008500E-7	1.026739E-2
1.009000E-7	1.025369E-2
1.009500E-7	1.025711E-2
1.010000E-7	1.025711E-2
1.010500E-7	1.022628E-2
1.011000E-7	1.017489E-2
1.011500E-7	1.010980E-2
1.012000E-7	1.001730E-2
1.012500E-7	9.924804E-3
1.013000E-7	9.835730E-3
1.013500E-7	9.732954E-3
1.014000E-7	9.626751E-3
1.014500E-7	9.568511E-3
1.015000E-7	9.578789E-3
1.015500E-7	9.613048E-3
1.016000E-7	9.643881E-3
1.016500E-7	9.708973E-3
1.017000E-7	9.804897E-3
1.017500E-7	9.890545E-3
1.018000E-7	9.962488E-3
1.018500E-7	1.003786E-2
1.019000E-7	1.008239E-2
1.019500E-7	1.009267E-2
1.020000E-7	1.008582E-2
1.020500E-7	1.006184E-2
1.021000E-7	1.001730E-2
1.021500E-7	9.986470E-3
1.022000E-7	9.948785E-3
1.022500E-7	9.900822E-3
1.023000E-7	9.880267E-3
1.023500E-7	9.893971E-3
1.024000E-7	9.897396E-3
1.024500E-7	9.907674E-3
1.025000E-7	9.965914E-3
1.025500E-7	1.005499E-2
1.026000E-7	1.012351E-2
1.026500E-7	1.016804E-2
1.027000E-7	1.022286E-2
1.027500E-7	1.028452E-2
1.028000E-7	1.031536E-2
1.028500E-7	1.031193E-2
1.029000E-7	1.031193E-2
1.029500E-7	1.032563E-2
1.030000E-7	1.033248E-2
1.030500E-7	1.032563E-2
1.031000E-7	1.029137E-2
1.031500E-7	1.026397E-2
1.032000E-7	1.026739E-2
1.032500E-7	1.027424E-2
1.033000E-7	1.025369E-2
1.033500E-7	1.023313E-2
1.034000E-7	1.023656E-2
1.034500E-7	1.023656E-2
1.035000E-7	1.020573E-2
1.035500E-7	1.019202E-2
1.036000E-7	1.017489E-2
1.036500E-7	1.014749E-2
1.037000E-7	1.011323E-2
1.037500E-7	1.006869E-2
1.038000E-7	1.002073E-2
1.038500E-7	1.001388E-2
1.039000E-7	1.001045E-2
1.039500E-7	9.979618E-3
1.040000E-7	9.965914E-3
1.040500E-7	9.979618E-3
1.041000E-7	9.986470E-3
1.041500E-7	9.976192E-3
1.042000E-7	9.986470E-3
1.042500E-7	1.002415E-2
1.043000E-7	1.005841E-2
1.043500E-7	1.008239E-2
1.044000E-7	1.009610E-2
1.044500E-7	1.009952E-2
1.045000E-7	1.008239E-2
1.045500E-7	1.005841E-2
1.046000E-7	1.001045E-2
1.046500E-7	9.948785E-3
1.047000E-7	9.883693E-3
1.047500E-7	9.811749E-3
1.048000E-7	9.702121E-3
1.048500E-7	9.568511E-3
1.049000E-7	9.445179E-3
1.049500E-7	9.362958E-3
1.050000E-7	9.297866E-3
1.050500E-7	9.256755E-3
1.051000E-7	9.236200E-3
1.051500E-7	9.232774E-3
1.052000E-7	9.260181E-3
1.052500E-7	9.314995E-3
1.053000E-7	9.373235E-3
1.053500E-7	9.434901E-3
1.054000E-7	9.499993E-3
1.054500E-7	9.547956E-3
1.055000E-7	9.568511E-3
1.055500E-7	9.554807E-3
1.056000E-7	9.527400E-3
1.056500E-7	9.486290E-3
1.057000E-7	9.428050E-3
1.057500E-7	9.373235E-3
1.058000E-7	9.328699E-3
1.058500E-7	9.294440E-3
1.059000E-7	9.256755E-3
1.059500E-7	9.222496E-3
1.060000E-7	9.215644E-3
1.060500E-7	9.236200E-3
1.061000E-7	9.270459E-3
1.061500E-7	9.308143E-3
1.062000E-7	9.349254E-3
1.062500E-7	9.397217E-3
1.063000E-7	9.455457E-3
1.063500E-7	9.513697E-3
1.064000E-7	9.565085E-3
1.064500E-7	9.589066E-3
1.065000E-7	9.602770E-3
1.065500E-7	9.599344E-3
1.066000E-7	9.589066E-3
1.066500E-7	9.575363E-3
1.067000E-7	9.561659E-3
1.067500E-7	9.527400E-3
1.068000E-7	9.503419E-3
1.068500E-7	9.493141E-3
1.069000E-7	9.469160E-3
1.069500E-7	9.462308E-3
1.070000E-7	9.482864E-3
1.070500E-7	9.493141E-3
1.071000E-7	9.506845E-3
1.071500E-7	9.547956E-3
1.072000E-7	9.582215E-3
1.072500E-7	9.595918E-3
1.073000E-7	9.602770E-3
1.073500E-7	9.606196E-3
1.074000E-7	9.606196E-3
1.074500E-7	9.616474E-3
1.075000E-7	9.619899E-3
1.075500E-7	9.630177E-3
1.076000E-7	9.633603E-3
1.076500E-7	9.647307E-3
1.077000E-7	9.674714E-3
1.077500E-7	9.688417E-3
1.078000E-7	9.667862E-3
1.078500E-7	9.640455E-3
1.079000E-7	9.606196E-3
1.079500E-7	9.541104E-3
1.080000E-7	9.448605E-3
1.080500E-7	9.352680E-3
1.081000E-7	9.260181E-3
1.081500E-7	9.174534E-3
1.082000E-7	9.092312E-3
1.082500E-7	9.013517E-3
1.083000E-7	8.951851E-3
1.083500E-7	8.910740E-3
1.084000E-7	8.893611E-3
1.084500E-7	8.893611E-3
1.085000E-7	8.903888E-3
1.085500E-7	8.917592E-3
1.086000E-7	8.938147E-3
1.086500E-7	8.986110E-3
1.087000E-7	9.020369E-3
1.087500E-7	9.037498E-3
1.088000E-7	9.068331E-3
1.088500E-7	9.106016E-3
1.089000E-7	9.106016E-3
1.089500E-7	9.099164E-3
1.090000E-7	9.088886E-3
1.090500E-7	9.064905E-3
1.091000E-7	9.027220E-3
1.091500E-7	9.003239E-3
1.092000E-7	8.989536E-3
1.092500E-7	8.955277E-3
1.093000E-7	8.893611E-3
1.093500E-7	8.842222E-3
1.094000E-7	8.821667E-3
1.094500E-7	8.825093E-3
1.095000E-7	8.849074E-3
1.095500E-7	8.879907E-3
1.096000E-7	8.931295E-3
1.096500E-7	9.010091E-3
1.097000E-7	9.085461E-3
1.097500E-7	9.143701E-3
1.098000E-7	9.229348E-3
1.098500E-7	9.311569E-3
1.099000E-7	9.328699E-3
1.099500E-7	9.314995E-3
1.100000E-7	9.325273E-3
1.100500E-7	9.321847E-3
1.101000E-7	9.253329E-3
1.101500E-7	9.171108E-3
1.102000E-7	9.119719E-3
1.102500E-7	9.078609E-3
1.103000E-7	9.020369E-3
1.103500E-7	8.965554E-3
1.104000E-7	8.921018E-3
1.104500E-7	8.893611E-3
1.105000E-7	8.893611E-3
1.105500E-7	8.921018E-3
1.106000E-7	8.944999E-3
1.106500E-7	8.948425E-3
1.107000E-7	8.965554E-3
1.107500E-7	9.010091E-3
1.108000E-7	9.030646E-3
1.108500E-7	9.013517E-3
1.109000E-7	8.996387E-3
1.109500E-7	8.996387E-3
1.110000E-7	8.955277E-3
1.110500E-7	8.873055E-3
1.111000E-7	8.804538E-3
1.111500E-7	8.753149E-3
1.112000E-7	8.688057E-3
1.112500E-7	8.619539E-3
1.113000E-7	8.581855E-3
1.113500E-7	8.575003E-3
1.114000E-7	8.592132E-3
1.114500E-7	8.626391E-3
1.115000E-7	8.681206E-3
1.115500E-7	8.760001E-3
1.116000E-7	8.835371E-3
1.116500E-7	8.917592E-3
1.117000E-7	8.999813E-3
1.117500E-7	9.047776E-3
1.118000E-7	9.034072E-3
1.118500E-7	8.982684E-3
1.119000E-7	8.917592E-3
1.119500E-7	8.828519E-3
1.120000E-7	8.688057E-3
1.120500E-7	8.516763E-3
1.121000E-7	8.379727E-3
1.121500E-7	8.273525E-3
1.122000E-7	8.160470E-3
1.122500E-7	8.064545E-3
1.123000E-7	8.013157E-3
1.123500E-7	8.009731E-3
1.124000E-7	8.043990E-3
1.124500E-7	8.081675E-3
1.125000E-7	8.143341E-3
1.125500E-7	8.242692E-3
1.126000E-7	8.321487E-3
1.126500E-7	8.366024E-3
1.127000E-7	8.417412E-3
1.127500E-7	8.465374E-3
1.128000E-7	8.482504E-3
1.128500E-7	8.475652E-3
1.129000E-7	8.458523E-3
1.129500E-7	8.448245E-3
1.130000E-7	8.472226E-3
1.130500E-7	8.506485E-3
1.131000E-7	8.520189E-3
1.131500E-7	8.557873E-3
1.132000E-7	8.616114E-3
1.132500E-7	8.684631E-3
1.133000E-7	8.756575E-3
1.133500E-7	8.797686E-3
1.134000E-7	8.777130E-3
1.134500E-7	8.756575E-3
1.135000E-7	8.729168E-3
1.135500E-7	8.653798E-3
1.136000E-7	8.575003E-3
1.136500E-7	8.523615E-3
1.137000E-7	8.475652E-3
1.137500E-7	8.410560E-3
1.138000E-7	8.390005E-3
1.138500E-7	8.427690E-3
1.139000E-7	8.461949E-3
1.139500E-7	8.513337E-3
1.140000E-7	8.602410E-3
1.140500E-7	8.677780E-3
1.141000E-7	8.715464E-3
1.141500E-7	8.756575E-3
1.142000E-7	8.787408E-3
1.142500E-7	8.763427E-3
1.143000E-7	8.718890E-3
1.143500E-7	8.684631E-3
1.144000E-7	8.633243E-3
1.144500E-7	8.564725E-3
1.145000E-7	8.492782E-3
1.145500E-7	8.437967E-3
1.146000E-7	8.407134E-3
1.146500E-7	8.400283E-3
1.147000E-7	8.400283E-3
1.147500E-7	8.379727E-3
1.148000E-7	8.352320E-3
1.148500E-7	8.359172E-3
1.149000E-7	8.355746E-3
1.149500E-7	8.318061E-3
1.150000E-7	8.280376E-3
1.150500E-7	8.256395E-3
1.151000E-7	8.208433E-3
1.151500E-7	8.143341E-3
1.152000E-7	8.122785E-3
1.152500E-7	8.115934E-3
1.153000E-7	8.102230E-3
1.153500E-7	8.126211E-3
1.154000E-7	8.174174E-3
1.154500E-7	8.184451E-3
1.155000E-7	8.205007E-3
1.155500E-7	8.270099E-3
1.156000E-7	8.307783E-3
1.156500E-7	8.314635E-3
1.157000E-7	8.331765E-3
1.157500E-7	8.345468E-3
1.158000E-7	8.352320E-3
1.158500E-7	8.379727E-3
1.159000E-7	8.393431E-3
1.159500E-7	8.379727E-3
1.160000E-7	8.383153E-3
1.160500E-7	8.434541E-3
1.161000E-7	8.485930E-3
1.161500E-7	8.530466E-3
1.162000E-7	8.616114E-3
1.162500E-7	8.712039E-3
1.163000E-7	8.777130E-3
1.163500E-7	8.831945E-3
1.164000E-7	8.869629E-3
1.164500E-7	8.890185E-3
1.165000E-7	8.914166E-3
1.165500E-7	8.921018E-3
1.166000E-7	8.869629E-3
1.166500E-7	8.794260E-3
1.167000E-7	8.725742E-3
1.167500E-7	8.636669E-3
1.168000E-7	8.516763E-3
1.168500E-7	8.396857E-3
1.169000E-7	8.314635E-3
1.169500E-7	8.235840E-3
1.170000E-7	8.170748E-3
1.170500E-7	8.136489E-3
1.171000E-7	8.153618E-3
1.171500E-7	8.198155E-3
1.172000E-7	8.246117E-3
1.172500E-7	8.266673E-3
1.173000E-7	8.294080E-3
1.173500E-7	8.338617E-3
1.174000E-7	8.386579E-3
1.174500E-7	8.400283E-3
1.175000E-7	8.407134E-3
1.175500E-7	8.420838E-3
1.176000E-7	8.417412E-3
1.176500E-7	8.383153E-3
1.177000E-7	8.345468E-3
1.177500E-7	8.304358E-3
1.178000E-7	8.266673E-3
1.178500E-7	8.232414E-3
1.179000E-7	8.208433E-3
1.179500E-7	8.177600E-3
1.180000E-7	8.150193E-3
1.180500E-7	8.139915E-3
1.181000E-7	8.136489E-3
1.181500E-7	8.146767E-3
1.182000E-7	8.160470E-3
1.182500E-7	8.160470E-3
1.183000E-7	8.150193E-3
1.183500E-7	8.133063E-3
1.184000E-7	8.112508E-3
1.184500E-7	8.098804E-3
1.185000E-7	8.088527E-3
1.185500E-7	8.064545E-3
1.186000E-7	8.050842E-3
1.186500E-7	8.030286E-3
1.187000E-7	7.999453E-3
1.187500E-7	7.985750E-3
1.188000E-7	7.992602E-3
1.188500E-7	8.002879E-3
1.189000E-7	8.037138E-3
1.189500E-7	8.081675E-3
1.190000E-7	8.129637E-3
1.190500E-7	8.211859E-3
1.191000E-7	8.314635E-3
1.191500E-7	8.410560E-3
1.192000E-7	8.489356E-3
1.192500E-7	8.571577E-3
1.193000E-7	8.650373E-3
1.193500E-7	8.712039E-3
1.194000E-7	8.742872E-3
1.194500E-7	8.756575E-3
1.195000E-7	8.766853E-3
1.195500E-7	8.746297E-3
1.196000E-7	8.688057E-3
1.196500E-7	8.643521E-3
1.197000E-7	8.616114E-3
1.197500E-7	8.554448E-3
1.198000E-7	8.489356E-3
1.198500E-7	8.427690E-3
1.199000E-7	8.348894E-3
1.199500E-7	8.280376E-3
1.200000E-7	8.239266E-3
1.200500E-7	8.205007E-3
1.201000E-7	8.160470E-3
1.201500E-7	8.136489E-3
1.202000E-7	8.143341E-3
1.202500E-7	8.163896E-3
1.203000E-7	8.174174E-3
1.203500E-7	8.184451E-3
1.204000E-7	8.218710E-3
1.204500E-7	8.263247E-3
1.205000E-7	8.280376E-3
1.205500E-7	8.270099E-3
1.206000E-7	8.246117E-3
1.206500E-7	8.208433E-3
1.207000E-7	8.126211E-3
1.207500E-7	8.023435E-3
1.208000E-7	7.951491E-3
1.208500E-7	7.862418E-3
1.209000E-7	7.725382E-3
1.209500E-7	7.626031E-3
1.210000E-7	7.584921E-3
1.210500E-7	7.543810E-3
1.211000E-7	7.512977E-3
1.211500E-7	7.540384E-3
1.212000E-7	7.602050E-3
1.212500E-7	7.650013E-3
1.213000E-7	7.704827E-3
1.213500E-7	7.780196E-3
1.214000E-7	7.852140E-3
1.214500E-7	7.906954E-3
1.215000E-7	7.961769E-3
1.215500E-7	7.989176E-3
1.216000E-7	7.978898E-3
1.216500E-7	7.941213E-3
1.217000E-7	7.893251E-3
1.217500E-7	7.845288E-3
1.218000E-7	7.804178E-3
1.218500E-7	7.752789E-3
1.219000E-7	7.701401E-3
1.219500E-7	7.667142E-3
1.220000E-7	7.650013E-3
1.220500E-7	7.653438E-3
1.221000E-7	7.680846E-3
1.221500E-7	7.721956E-3
1.222000E-7	7.752789E-3
1.222500E-7	7.814455E-3
1.223000E-7	7.900103E-3
1.223500E-7	7.958343E-3
1.224000E-7	7.999453E-3
1.224500E-7	8.071397E-3
1.225000E-7	8.139915E-3
1.225500E-7	8.170748E-3
1.226000E-7	8.184451E-3
1.226500E-7	8.184451E-3
1.227000E-7	8.139915E-3
1.227500E-7	8.074823E-3
1.228000E-7	7.989176E-3
1.228500E-7	7.872695E-3
1.229000E-7	7.769919E-3
1.229500E-7	7.708253E-3
1.230000E-7	7.653438E-3
1.230500E-7	7.598624E-3
1.231000E-7	7.598624E-3
1.231500E-7	7.639735E-3
1.232000E-7	7.687697E-3
1.232500E-7	7.780196E-3
1.233000E-7	7.910380E-3
1.233500E-7	8.043990E-3
1.234000E-7	8.181026E-3
1.234500E-7	8.311209E-3
1.235000E-7	8.369450E-3
1.235500E-7	8.393431E-3
1.236000E-7	8.437967E-3
1.236500E-7	8.431116E-3
1.237000E-7	8.362598E-3
1.237500E-7	8.300932E-3
1.238000E-7	8.211859E-3
1.238500E-7	8.098804E-3
1.239000E-7	8.020009E-3
1.239500E-7	7.954917E-3
1.240000E-7	7.858992E-3
1.240500E-7	7.804178E-3
1.241000E-7	7.793900E-3
1.241500E-7	7.793900E-3
1.242000E-7	7.828159E-3
1.242500E-7	7.889825E-3
1.243000E-7	7.948065E-3
1.243500E-7	7.982324E-3
1.244000E-7	8.030286E-3
1.244500E-7	8.091952E-3
1.245000E-7	8.119360E-3
1.245500E-7	8.098804E-3
1.246000E-7	8.043990E-3
1.246500E-7	7.972046E-3
1.247000E-7	7.872695E-3
1.247500E-7	7.732234E-3
1.248000E-7	7.554088E-3
1.248500E-7	7.399923E-3
1.249000E-7	7.303998E-3
1.249500E-7	7.221776E-3
1.250000E-7	7.142981E-3
1.250500E-7	7.119000E-3
1.251000E-7	7.160110E-3
1.251500E-7	7.228628E-3
1.252000E-7	7.300572E-3
1.252500E-7	7.403349E-3
1.253000E-7	7.519829E-3
1.253500E-7	7.626031E-3
1.254000E-7	7.718530E-3
1.254500E-7	7.769919E-3
1.255000E-7	7.800752E-3
1.255500E-7	7.858992E-3
1.256000E-7	7.917232E-3
1.256500E-7	7.910380E-3
1.257000E-7	7.862418E-3
1.257500E-7	7.828159E-3
1.258000E-7	7.790474E-3
1.258500E-7	7.732234E-3
1.259000E-7	7.684271E-3
1.259500E-7	7.646587E-3
1.260000E-7	7.619180E-3
1.260500E-7	7.605476E-3
1.261000E-7	7.598624E-3
1.261500E-7	7.560939E-3
1.262000E-7	7.519829E-3
1.262500E-7	7.499273E-3
1.263000E-7	7.478718E-3
1.263500E-7	7.441033E-3
1.264000E-7	7.406774E-3
1.264500E-7	7.393071E-3
1.265000E-7	7.382793E-3
1.265500E-7	7.382793E-3
1.266000E-7	7.399923E-3
1.266500E-7	7.413626E-3
1.267000E-7	7.399923E-3
1.267500E-7	7.406774E-3
1.268000E-7	7.447885E-3
1.268500E-7	7.499273E-3
1.269000E-7	7.540384E-3
1.269500E-7	7.574643E-3
1.270000E-7	7.612328E-3
1.270500E-7	7.646587E-3
1.271000E-7	7.684271E-3
1.271500E-7	7.704827E-3
1.272000E-7	7.697975E-3
1.272500E-7	7.704827E-3
1.273000E-7	7.708253E-3
1.273500E-7	7.670568E-3
1.274000E-7	7.643161E-3
1.274500E-7	7.643161E-3
1.275000E-7	7.595198E-3
1.275500E-7	7.516403E-3
1.276000E-7	7.488996E-3
1.276500E-7	7.458163E-3
1.277000E-7	7.399923E-3
1.277500E-7	7.375941E-3
1.278000E-7	7.379367E-3
1.278500E-7	7.341682E-3
1.279000E-7	7.314275E-3
1.279500E-7	7.314275E-3
1.280000E-7	7.300572E-3
1.280500E-7	7.273165E-3
1.281000E-7	7.266313E-3
1.281500E-7	7.232054E-3
1.282000E-7	7.177240E-3
1.282500E-7	7.122426E-3
1.283000E-7	7.067611E-3
1.283500E-7	7.012797E-3
1.284000E-7	6.954557E-3
1.284500E-7	6.892891E-3
1.285000E-7	6.841503E-3
1.285500E-7	6.786688E-3
1.286000E-7	6.731874E-3
1.286500E-7	6.704467E-3
1.287000E-7	6.714745E-3
1.287500E-7	6.714745E-3
1.288000E-7	6.718170E-3
1.288500E-7	6.742152E-3
1.289000E-7	6.783262E-3
1.289500E-7	6.841503E-3
1.290000E-7	6.920298E-3
1.290500E-7	6.985390E-3
1.291000E-7	7.040204E-3
1.291500E-7	7.122426E-3
1.292000E-7	7.208073E-3
1.292500E-7	7.262887E-3
1.293000E-7	7.307424E-3
1.293500E-7	7.358812E-3
1.294000E-7	7.372515E-3
1.294500E-7	7.362238E-3
1.295000E-7	7.345108E-3
1.295500E-7	7.310849E-3
1.296000E-7	7.280016E-3
1.296500E-7	7.280016E-3
1.297000E-7	7.280016E-3
1.297500E-7	7.273165E-3
1.298000E-7	7.321127E-3
1.298500E-7	7.396497E-3
1.299000E-7	7.451311E-3
1.299500E-7	7.492422E-3
1.300000E-7	7.530106E-3
1.300500E-7	7.543810E-3
1.301000E-7	7.547236E-3
1.301500E-7	7.540384E-3
1.302000E-7	7.492422E-3
1.302500E-7	7.393071E-3
1.303000E-7	7.303998E-3
1.303500E-7	7.228628E-3
1.304000E-7	7.146407E-3
1.304500E-7	7.057334E-3
1.305000E-7	6.981964E-3
1.305500E-7	6.903169E-3
1.306000E-7	6.851780E-3
1.306500E-7	6.831225E-3
1.307000E-7	6.796966E-3
1.307500E-7	6.749003E-3
1.308000E-7	6.731874E-3
1.308500E-7	6.742152E-3
1.309000E-7	6.742152E-3
1.309500E-7	6.725022E-3
1.310000E-7	6.711319E-3
1.310500E-7	6.707893E-3
1.311000E-7	6.707893E-3
1.311500E-7	6.725022E-3
1.312000E-7	6.772985E-3
1.312500E-7	6.800392E-3
1.313000E-7	6.820947E-3
1.313500E-7	6.865484E-3
1.314000E-7	6.910020E-3
1.314500E-7	6.944279E-3
1.315000E-7	6.999093E-3
1.315500E-7	7.050482E-3
1.316000E-7	7.071037E-3
1.316500E-7	7.095018E-3
1.317000E-7	7.119000E-3
1.317500E-7	7.115574E-3
1.318000E-7	7.108722E-3
1.318500E-7	7.112148E-3
1.319000E-7	7.098444E-3
1.319500E-7	7.067611E-3
1.320000E-7	7.036778E-3
1.320500E-7	6.978538E-3
1.321000E-7	6.923724E-3
1.321500E-7	6.896317E-3
1.322000E-7	6.872336E-3
1.322500E-7	6.838077E-3
1.323000E-7	6.793540E-3
1.323500E-7	6.772985E-3
1.324000E-7	6.796966E-3
1.324500E-7	6.834651E-3
1.325000E-7	6.855206E-3
1.325500E-7	6.865484E-3
1.326000E-7	6.882613E-3
1.326500E-7	6.882613E-3
1.327000E-7	6.862058E-3
1.327500E-7	6.827799E-3
1.328000E-7	6.779837E-3
1.328500E-7	6.683912E-3
1.329000E-7	6.574283E-3
1.329500E-7	6.485210E-3
1.330000E-7	6.409840E-3
1.330500E-7	6.327619E-3
1.331000E-7	6.252249E-3
1.331500E-7	6.228268E-3
1.332000E-7	6.241972E-3
1.332500E-7	6.259101E-3
1.333000E-7	6.265953E-3
1.333500E-7	6.307064E-3
1.334000E-7	6.379007E-3
1.334500E-7	6.447525E-3
1.335000E-7	6.505765E-3
1.335500E-7	6.553728E-3
1.336000E-7	6.587987E-3
1.336500E-7	6.611968E-3
1.337000E-7	6.622246E-3
1.337500E-7	6.629097E-3
1.338000E-7	6.629097E-3
1.338500E-7	6.635949E-3
1.339000E-7	6.677060E-3
1.339500E-7	6.728448E-3
1.340000E-7	6.769559E-3
1.340500E-7	6.824373E-3
1.341000E-7	6.906594E-3
1.341500E-7	6.985390E-3
1.342000E-7	7.023075E-3
1.342500E-7	7.026501E-3
1.343000E-7	6.999093E-3
1.343500E-7	6.944279E-3
1.344000E-7	6.855206E-3
1.344500E-7	6.738726E-3
1.345000E-7	6.608542E-3
1.345500E-7	6.498914E-3
1.346000E-7	6.420118E-3
1.346500E-7	6.331045E-3
1.347000E-7	6.272805E-3
1.347500E-7	6.272805E-3
1.348000E-7	6.310490E-3
1.348500E-7	6.385859E-3
1.349000E-7	6.505765E-3
1.349500E-7	6.615394E-3
1.350000E-7	6.697615E-3
1.350500E-7	6.776411E-3
1.351000E-7	6.851780E-3
1.351500E-7	6.892891E-3
1.352000E-7	6.892891E-3
1.352500E-7	6.855206E-3
1.353000E-7	6.793540E-3
1.353500E-7	6.728448E-3
1.354000E-7	6.653079E-3
1.354500E-7	6.560580E-3
1.355000E-7	6.492062E-3
1.355500E-7	6.457803E-3
1.356000E-7	6.423544E-3
1.356500E-7	6.379007E-3
1.357000E-7	6.368730E-3
1.357500E-7	6.399563E-3
1.358000E-7	6.413266E-3
1.358500E-7	6.402989E-3
1.359000E-7	6.399563E-3
1.359500E-7	6.406414E-3
1.360000E-7	6.426970E-3
1.360500E-7	6.464655E-3
1.361000E-7	6.492062E-3
1.361500E-7	6.512617E-3
1.362000E-7	6.546876E-3
1.362500E-7	6.587987E-3
1.363000E-7	6.615394E-3
1.363500E-7	6.639375E-3
1.364000E-7	6.625671E-3
1.364500E-7	6.553728E-3
1.365000E-7	6.457803E-3
1.365500E-7	6.372156E-3
1.366000E-7	6.276231E-3
1.366500E-7	6.170028E-3
1.367000E-7	6.077529E-3
1.367500E-7	5.988456E-3
1.368000E-7	5.926790E-3
1.368500E-7	5.933642E-3
1.369000E-7	5.974752E-3
1.369500E-7	6.026141E-3
1.370000E-7	6.122066E-3
1.370500E-7	6.255675E-3
1.371000E-7	6.372156E-3
1.371500E-7	6.481784E-3
1.372000E-7	6.601690E-3
1.372500E-7	6.677060E-3
1.373000E-7	6.694189E-3
1.373500E-7	6.694189E-3
1.374000E-7	6.663356E-3
1.374500E-7	6.581135E-3
1.375000E-7	6.495488E-3
1.375500E-7	6.399563E-3
1.376000E-7	6.296786E-3
1.376500E-7	6.200861E-3
1.377000E-7	6.146047E-3
1.377500E-7	6.111788E-3
1.378000E-7	6.087807E-3
1.378500E-7	6.084381E-3
1.379000E-7	6.108362E-3
1.379500E-7	6.139195E-3
1.380000E-7	6.149473E-3
1.380500E-7	6.142621E-3
1.381000E-7	6.128917E-3
1.381500E-7	6.135769E-3
1.382000E-7	6.142621E-3
1.382500E-7	6.111788E-3
1.383000E-7	6.067251E-3
1.383500E-7	6.032992E-3
1.384000E-7	5.978178E-3
1.384500E-7	5.899383E-3
1.385000E-7	5.827439E-3
1.385500E-7	5.745218E-3
1.386000E-7	5.662996E-3
1.386500E-7	5.611608E-3
1.387000E-7	5.597904E-3
1.387500E-7	5.594479E-3
1.388000E-7	5.625312E-3
1.388500E-7	5.690403E-3
1.389000E-7	5.762347E-3
1.389500E-7	5.851420E-3
1.390000E-7	5.978178E-3
1.390500E-7	6.094658E-3
1.391000E-7	6.187158E-3
1.391500E-7	6.255675E-3
1.392000E-7	6.255675E-3
1.392500E-7	6.214565E-3
1.393000E-7	6.194009E-3
1.393500E-7	6.163176E-3
1.394000E-7	6.094658E-3
1.394500E-7	6.039844E-3
1.395000E-7	6.019289E-3
1.395500E-7	6.009011E-3
1.396000E-7	6.029567E-3
1.396500E-7	6.104936E-3
1.397000E-7	6.190583E-3
1.397500E-7	6.293360E-3
1.398000E-7	6.413266E-3
1.398500E-7	6.492062E-3
1.399000E-7	6.533172E-3
1.399500E-7	6.564005E-3
1.400000E-7	6.564005E-3
1.400500E-7	6.505765E-3
1.401000E-7	6.416692E-3
1.401500E-7	6.307064E-3
1.402000E-7	6.173454E-3
1.402500E-7	6.026141E-3
1.403000E-7	5.906235E-3
1.403500E-7	5.817161E-3
1.404000E-7	5.731514E-3
1.404500E-7	5.676700E-3
1.405000E-7	5.659570E-3
1.405500E-7	5.659570E-3
1.406000E-7	5.652719E-3
1.406500E-7	5.659570E-3
1.407000E-7	5.669848E-3
1.407500E-7	5.649293E-3
1.408000E-7	5.632163E-3
1.408500E-7	5.649293E-3
1.409000E-7	5.628737E-3
1.409500E-7	5.601330E-3
1.410000E-7	5.635589E-3
1.410500E-7	5.676700E-3
1.411000E-7	5.686978E-3
1.411500E-7	5.686978E-3
1.412000E-7	5.714385E-3
1.412500E-7	5.734940E-3
1.413000E-7	5.731514E-3
1.413500E-7	5.714385E-3
1.414000E-7	5.669848E-3
1.414500E-7	5.608182E-3
1.415000E-7	5.570497E-3
1.415500E-7	5.536238E-3
1.416000E-7	5.481424E-3
1.416500E-7	5.423184E-3
1.417000E-7	5.382073E-3
1.417500E-7	5.351240E-3
1.418000E-7	5.340963E-3
1.418500E-7	5.337537E-3
1.419000E-7	5.358092E-3
1.419500E-7	5.406055E-3
1.420000E-7	5.460869E-3
1.420500E-7	5.505405E-3
1.421000E-7	5.532813E-3
1.421500E-7	5.556794E-3
1.422000E-7	5.597904E-3
1.422500E-7	5.649293E-3
1.423000E-7	5.680126E-3
1.423500E-7	5.710959E-3
1.424000E-7	5.745218E-3
1.424500E-7	5.765773E-3
1.425000E-7	5.758921E-3
1.425500E-7	5.755495E-3
1.426000E-7	5.765773E-3
1.426500E-7	5.765773E-3
1.427000E-7	5.752069E-3
1.427500E-7	5.745218E-3
1.428000E-7	5.728088E-3
1.428500E-7	5.690403E-3
1.429000E-7	5.662996E-3
1.429500E-7	5.642441E-3
1.430000E-7	5.591053E-3
1.430500E-7	5.536238E-3
1.431000E-7	5.491702E-3
1.431500E-7	5.457443E-3
1.432000E-7	5.423184E-3
1.432500E-7	5.402629E-3
1.433000E-7	5.409480E-3
1.433500E-7	5.433462E-3
1.434000E-7	5.481424E-3
1.434500E-7	5.525961E-3
1.435000E-7	5.567071E-3
1.435500E-7	5.604756E-3
1.436000E-7	5.645867E-3
1.436500E-7	5.683552E-3
1.437000E-7	5.697255E-3
1.437500E-7	5.697255E-3
1.438000E-7	5.697255E-3
1.438500E-7	5.683552E-3
1.439000E-7	5.680126E-3
1.439500E-7	5.697255E-3
1.440000E-7	5.724662E-3
1.440500E-7	5.752069E-3
1.441000E-7	5.793180E-3
1.441500E-7	5.847994E-3
1.442000E-7	5.913086E-3
1.442500E-7	5.974752E-3
1.443000E-7	6.019289E-3
1.443500E-7	6.050122E-3
1.444000E-7	6.067251E-3
1.444500E-7	6.046696E-3
1.445000E-7	5.991882E-3
1.445500E-7	5.937068E-3
1.446000E-7	5.871976E-3
1.446500E-7	5.803458E-3
1.447000E-7	5.745218E-3
1.447500E-7	5.710959E-3
1.448000E-7	5.686978E-3
1.448500E-7	5.676700E-3
1.449000E-7	5.666422E-3
1.449500E-7	5.666422E-3
1.450000E-7	5.635589E-3
1.450500E-7	5.560220E-3
1.451000E-7	5.484850E-3
1.451500E-7	5.423184E-3
1.452000E-7	5.310130E-3
1.452500E-7	5.159390E-3
1.453000E-7	5.039484E-3
1.453500E-7	4.933282E-3
1.454000E-7	4.806524E-3
1.454500E-7	4.720877E-3
1.455000E-7	4.693469E-3
1.455500E-7	4.679766E-3
1.456000E-7	4.696895E-3
1.456500E-7	4.768839E-3
1.457000E-7	4.864764E-3
1.457500E-7	4.967541E-3
1.458000E-7	5.101150E-3
1.458500E-7	5.234760E-3
1.459000E-7	5.327259E-3
1.459500E-7	5.382073E-3
1.460000E-7	5.392351E-3
1.460500E-7	5.344389E-3
1.461000E-7	5.275871E-3
1.461500E-7	5.200501E-3
1.462000E-7	5.097724E-3
1.462500E-7	4.967541E-3
1.463000E-7	4.840783E-3
1.463500E-7	4.748284E-3
1.464000E-7	4.683192E-3
1.464500E-7	4.666062E-3
1.465000E-7	4.696895E-3
1.465500E-7	4.755135E-3
1.466000E-7	4.837357E-3
1.466500E-7	4.933282E-3
1.467000E-7	5.032633E-3
1.467500E-7	5.138835E-3
1.468000E-7	5.245038E-3
1.468500E-7	5.320407E-3
1.469000E-7	5.368370E-3
1.469500E-7	5.406055E-3
1.470000E-7	5.409480E-3
1.470500E-7	5.368370E-3
1.471000E-7	5.310130E-3
1.471500E-7	5.255315E-3
1.472000E-7	5.203927E-3
1.472500E-7	5.166242E-3
1.473000E-7	5.145687E-3
1.473500E-7	5.135409E-3
1.474000E-7	5.142261E-3
1.474500E-7	5.183372E-3
1.475000E-7	5.231334E-3
1.475500E-7	5.293000E-3
1.476000E-7	5.358092E-3
1.476500E-7	5.409480E-3
1.477000E-7	5.440313E-3
1.477500E-7	5.467721E-3
1.478000E-7	5.464295E-3
1.478500E-7	5.433462E-3
1.479000E-7	5.399203E-3
1.479500E-7	5.375222E-3
1.480000E-7	5.330685E-3
1.480500E-7	5.265593E-3
1.481000E-7	5.214205E-3
1.481500E-7	5.186798E-3
1.482000E-7	5.162816E-3
1.482500E-7	5.131983E-3
1.483000E-7	5.125132E-3
1.483500E-7	5.142261E-3
1.484000E-7	5.149113E-3
1.484500E-7	5.138835E-3
1.485000E-7	5.149113E-3
1.485500E-7	5.197075E-3
1.486000E-7	5.234760E-3
1.486500E-7	5.251890E-3
1.487000E-7	5.275871E-3
1.487500E-7	5.310130E-3
1.488000E-7	5.354666E-3
1.488500E-7	5.409480E-3
1.489000E-7	5.474572E-3
1.489500E-7	5.536238E-3
1.490000E-7	5.584201E-3
1.490500E-7	5.608182E-3
1.491000E-7	5.625312E-3
1.491500E-7	5.632163E-3
1.492000E-7	5.608182E-3
1.492500E-7	5.539664E-3
1.493000E-7	5.450591E-3
1.493500E-7	5.354666E-3
1.494000E-7	5.258741E-3
1.494500E-7	5.142261E-3
1.495000E-7	5.025781E-3
1.495500E-7	4.943559E-3
1.496000E-7	4.899023E-3
1.496500E-7	4.857912E-3
1.497000E-7	4.830505E-3
1.497500E-7	4.844209E-3
1.498000E-7	4.895597E-3
1.498500E-7	4.943559E-3
1.499000E-7	4.998374E-3
1.499500E-7	5.056614E-3
1.500000E-7	5.101150E-3
1.500500E-7	5.155965E-3
1.501000E-7	5.217631E-3
1.501500E-7	5.258741E-3
1.502000E-7	5.282723E-3
1.502500E-7	5.310130E-3
1.503000E-7	5.323833E-3
1.503500E-7	5.323833E-3
1.504000E-7	5.310130E-3
1.504500E-7	5.279297E-3
1.505000E-7	5.221057E-3
1.505500E-7	5.176520E-3
1.506000E-7	5.135409E-3
1.506500E-7	5.042910E-3
1.507000E-7	4.919578E-3
1.507500E-7	4.833931E-3
1.508000E-7	4.761987E-3
1.508500E-7	4.683192E-3
1.509000E-7	4.638655E-3
1.509500E-7	4.631803E-3
1.510000E-7	4.611248E-3
1.510500E-7	4.628378E-3
1.511000E-7	4.714025E-3
1.511500E-7	4.813376E-3
1.512000E-7	4.902449E-3
1.512500E-7	4.998374E-3
1.513000E-7	5.077169E-3
1.513500E-7	5.121706E-3
1.514000E-7	5.149113E-3
1.514500E-7	5.152539E-3
1.515000E-7	5.125132E-3
1.515500E-7	5.070317E-3
1.516000E-7	5.018929E-3
1.516500E-7	4.981244E-3
1.517000E-7	4.933282E-3
1.517500E-7	4.871616E-3
1.518000E-7	4.840783E-3
1.518500E-7	4.837357E-3
1.519000E-7	4.840783E-3
1.519500E-7	4.868190E-3
1.520000E-7	4.926430E-3
1.520500E-7	4.970967E-3
1.521000E-7	5.001800E-3
1.521500E-7	5.036058E-3
1.522000E-7	5.049762E-3
1.522500E-7	5.036058E-3
1.523000E-7	5.001800E-3
1.523500E-7	4.957263E-3
1.524000E-7	4.909301E-3
1.524500E-7	4.857912E-3
1.525000E-7	4.806524E-3
1.525500E-7	4.751710E-3
1.526000E-7	4.703747E-3
1.526500E-7	4.703747E-3
1.527000E-7	4.727728E-3
1.527500E-7	4.744858E-3
1.528000E-7	4.768839E-3
1.528500E-7	4.820227E-3
1.529000E-7	4.871616E-3
1.529500E-7	4.909301E-3
1.530000E-7	4.916152E-3
1.530500E-7	4.895597E-3
1.531000E-7	4.861338E-3
1.531500E-7	4.820227E-3
1.532000E-7	4.765413E-3
1.532500E-7	4.714025E-3
1.533000E-7	4.642081E-3
1.533500E-7	4.553008E-3
1.534000E-7	4.501620E-3
1.534500E-7	4.487916E-3
1.535000E-7	4.450231E-3
1.535500E-7	4.419398E-3
1.536000E-7	4.463935E-3
1.536500E-7	4.525601E-3
1.537000E-7	4.573563E-3
1.537500E-7	4.648933E-3
1.538000E-7	4.720877E-3
1.538500E-7	4.744858E-3
1.539000E-7	4.748284E-3
1.539500E-7	4.755135E-3
1.540000E-7	4.731154E-3
1.540500E-7	4.679766E-3
1.541000E-7	4.638655E-3
1.541500E-7	4.597545E-3
1.542000E-7	4.549582E-3
1.542500E-7	4.522175E-3
1.543000E-7	4.511897E-3
1.543500E-7	4.494768E-3
1.544000E-7	4.498194E-3
1.544500E-7	4.525601E-3
1.545000E-7	4.546156E-3
1.545500E-7	4.566712E-3
1.546000E-7	4.607822E-3
1.546500E-7	4.631803E-3
1.547000E-7	4.648933E-3
1.547500E-7	4.662636E-3
1.548000E-7	4.666062E-3
1.548500E-7	4.635229E-3
1.549000E-7	4.597545E-3
1.549500E-7	4.580415E-3
1.550000E-7	4.549582E-3
1.550500E-7	4.511897E-3
1.551000E-7	4.481064E-3
1.551500E-7	4.439954E-3
1.552000E-7	4.391991E-3
1.552500E-7	4.344029E-3
1.553000E-7	4.292640E-3
1.553500E-7	4.244678E-3
1.554000E-7	4.220697E-3
1.554500E-7	4.234400E-3
1.555000E-7	4.254956E-3
1.555500E-7	4.268659E-3
1.556000E-7	4.302918E-3
1.556500E-7	4.364584E-3
1.557000E-7	4.433102E-3
1.557500E-7	4.494768E-3
1.558000E-7	4.549582E-3
1.558500E-7	4.628378E-3
1.559000E-7	4.717451E-3
1.559500E-7	4.765413E-3
1.560000E-7	4.775691E-3
1.560500E-7	4.775691E-3
1.561000E-7	4.727728E-3
1.561500E-7	4.648933E-3
1.562000E-7	4.573563E-3
1.562500E-7	4.494768E-3
1.563000E-7	4.405695E-3
1.563500E-7	4.316622E-3
1.564000E-7	4.248104E-3
1.564500E-7	4.189864E-3
1.565000E-7	4.183012E-3
1.565500E-7	4.210419E-3
1.566000E-7	4.244678E-3
1.566500E-7	4.299492E-3
1.567000E-7	4.391991E-3
1.567500E-7	4.491342E-3
1.568000E-7	4.576989E-3
1.568500E-7	4.638655E-3
1.569000E-7	4.669488E-3
1.569500E-7	4.690044E-3
1.570000E-7	4.693469E-3
1.570500E-7	4.655785E-3
1.571000E-7	4.600970E-3
1.571500E-7	4.556434E-3
1.572000E-7	4.498194E-3
1.572500E-7	4.429676E-3
1.573000E-7	4.405695E-3
1.573500E-7	4.409121E-3
1.574000E-7	4.391991E-3
1.574500E-7	4.405695E-3
1.575000E-7	4.467361E-3
1.575500E-7	4.535878E-3
1.576000E-7	4.594119E-3
1.576500E-7	4.638655E-3
1.577000E-7	4.669488E-3
1.577500E-7	4.686618E-3
1.578000E-7	4.683192E-3
1.578500E-7	4.652359E-3
1.579000E-7	4.594119E-3
1.579500E-7	4.511897E-3
1.580000E-7	4.419398E-3
1.580500E-7	4.323473E-3
1.581000E-7	4.224122E-3
1.581500E-7	4.141901E-3
1.582000E-7	4.100790E-3
1.582500E-7	4.083661E-3
1.583000E-7	4.063106E-3
1.583500E-7	4.073383E-3
1.584000E-7	4.107642E-3
1.584500E-7	4.145327E-3
1.585000E-7	4.189864E-3
1.585500E-7	4.251530E-3
1.586000E-7	4.306344E-3
1.586500E-7	4.333751E-3
1.587000E-7	4.340603E-3
1.587500E-7	4.340603E-3
1.588000E-7	4.330325E-3
1.588500E-7	4.289214E-3
1.589000E-7	4.248104E-3
1.589500E-7	4.217271E-3
1.590000E-7	4.176160E-3
1.590500E-7	4.135049E-3
1.591000E-7	4.128198E-3
1.591500E-7	4.148753E-3
1.592000E-7	4.179586E-3
1.592500E-7	4.230974E-3
1.593000E-7	4.285789E-3
1.593500E-7	4.323473E-3
1.594000E-7	4.357732E-3
1.594500E-7	4.374862E-3
1.595000E-7	4.364584E-3
1.595500E-7	4.340603E-3
1.596000E-7	4.313196E-3
1.596500E-7	4.285789E-3
1.597000E-7	4.265233E-3
1.597500E-7	4.251530E-3
1.598000E-7	4.244678E-3
1.598500E-7	4.227548E-3
1.599000E-7	4.227548E-3
1.599500E-7	4.244678E-3
1.600000E-7	4.217271E-3
1.600500E-7	4.186438E-3
1.601000E-7	4.162456E-3
1.601500E-7	4.128198E-3
1.602000E-7	4.093939E-3
1.602500E-7	4.066532E-3
1.603000E-7	4.028847E-3
1.603500E-7	3.991162E-3
1.604000E-7	3.980884E-3
1.604500E-7	3.970607E-3
1.605000E-7	3.977458E-3
1.605500E-7	4.032273E-3
1.606000E-7	4.114494E-3
1.606500E-7	4.189864E-3
1.607000E-7	4.272085E-3
1.607500E-7	4.354306E-3
1.608000E-7	4.415972E-3
1.608500E-7	4.474212E-3
1.609000E-7	4.515323E-3
1.609500E-7	4.522175E-3
1.610000E-7	4.508471E-3
1.610500E-7	4.477638E-3
1.611000E-7	4.405695E-3
1.611500E-7	4.313196E-3
1.612000E-7	4.241252E-3
1.612500E-7	4.169308E-3
1.613000E-7	4.090513E-3
1.613500E-7	4.018569E-3
1.614000E-7	3.980884E-3
1.614500E-7	3.963755E-3
1.615000E-7	3.963755E-3
1.615500E-7	3.974033E-3
1.616000E-7	4.028847E-3
1.616500E-7	4.111068E-3
1.617000E-7	4.193289E-3
1.617500E-7	4.268659E-3
1.618000E-7	4.350880E-3
1.618500E-7	4.436528E-3
1.619000E-7	4.511897E-3
1.619500E-7	4.563286E-3
1.620000E-7	4.570137E-3
1.620500E-7	4.556434E-3
1.621000E-7	4.515323E-3
1.621500E-7	4.443379E-3
1.622000E-7	4.371436E-3
1.622500E-7	4.299492E-3
1.623000E-7	4.206993E-3
1.623500E-7	4.128198E-3
1.624000E-7	4.114494E-3
1.624500E-7	4.104216E-3
1.625000E-7	4.059680E-3
1.625500E-7	4.045976E-3
1.626000E-7	4.097365E-3
1.626500E-7	4.145327E-3
1.627000E-7	4.196715E-3
1.627500E-7	4.251530E-3
1.628000E-7	4.278937E-3
1.628500E-7	4.282363E-3
1.629000E-7	4.306344E-3
1.629500E-7	4.316622E-3
1.630000E-7	4.289214E-3
1.630500E-7	4.254956E-3
1.631000E-7	4.227548E-3
1.631500E-7	4.206993E-3
1.632000E-7	4.210419E-3
1.632500E-7	4.217271E-3
1.633000E-7	4.203567E-3
1.633500E-7	4.206993E-3
1.634000E-7	4.224122E-3
1.634500E-7	4.227548E-3
1.635000E-7	4.210419E-3
1.635500E-7	4.179586E-3
1.636000E-7	4.121346E-3
1.636500E-7	4.052828E-3
1.637000E-7	3.987736E-3
1.637500E-7	3.902089E-3
1.638000E-7	3.819867E-3
1.638500E-7	3.765053E-3
1.639000E-7	3.751350E-3
1.639500E-7	3.754776E-3
1.640000E-7	3.785609E-3
1.640500E-7	3.833571E-3
1.641000E-7	3.888385E-3
1.641500E-7	3.953477E-3
1.642000E-7	4.028847E-3
1.642500E-7	4.063106E-3
1.643000E-7	4.063106E-3
1.643500E-7	4.059680E-3
1.644000E-7	4.032273E-3
1.644500E-7	3.963755E-3
1.645000E-7	3.881533E-3
1.645500E-7	3.802738E-3
1.646000E-7	3.713665E-3
1.646500E-7	3.617740E-3
1.647000E-7	3.559500E-3
1.647500E-7	3.542370E-3
1.648000E-7	3.545796E-3
1.648500E-7	3.569777E-3
1.649000E-7	3.624592E-3
1.649500E-7	3.723943E-3
1.650000E-7	3.847275E-3
1.650500E-7	3.956903E-3
1.651000E-7	4.066532E-3
1.651500E-7	4.165882E-3
1.652000E-7	4.224122E-3
1.652500E-7	4.251530E-3
1.653000E-7	4.285789E-3
1.653500E-7	4.313196E-3
1.654000E-7	4.316622E-3
1.654500E-7	4.302918E-3
1.655000E-7	4.285789E-3
1.655500E-7	4.258381E-3
1.656000E-7	4.227548E-3
1.656500E-7	4.210419E-3
1.657000E-7	4.203567E-3
1.657500E-7	4.203567E-3
1.658000E-7	4.217271E-3
1.658500E-7	4.210419E-3
1.659000E-7	4.206993E-3
1.659500E-7	4.234400E-3
1.660000E-7	4.251530E-3
1.660500E-7	4.282363E-3
1.661000E-7	4.350880E-3
1.661500E-7	4.398843E-3
1.662000E-7	4.412546E-3
1.662500E-7	4.470787E-3
1.663000E-7	4.546156E-3
1.663500E-7	4.576989E-3
1.664000E-7	4.573563E-3
1.664500E-7	4.573563E-3
1.665000E-7	4.570137E-3
1.665500E-7	4.535878E-3
1.666000E-7	4.484490E-3
1.666500E-7	4.398843E-3
1.667000E-7	4.302918E-3
1.667500E-7	4.237826E-3
1.668000E-7	4.179586E-3
1.668500E-7	4.121346E-3
1.669000E-7	4.097365E-3
1.669500E-7	4.066532E-3
1.670000E-7	4.018569E-3
1.670500E-7	4.021995E-3
1.671000E-7	4.063106E-3
1.671500E-7	4.063106E-3
1.672000E-7	4.052828E-3
1.672500E-7	4.063106E-3
1.673000E-7	4.039124E-3
1.673500E-7	3.984310E-3
1.674000E-7	3.932922E-3
1.674500E-7	3.888385E-3
1.675000E-7	3.840423E-3
1.675500E-7	3.799312E-3
1.676000E-7	3.778757E-3
1.676500E-7	3.799312E-3
1.677000E-7	3.840423E-3
1.677500E-7	3.902089E-3
1.678000E-7	3.980884E-3
1.678500E-7	4.066532E-3
1.679000E-7	4.152179E-3
1.679500E-7	4.206993E-3
1.680000E-7	4.213845E-3
1.680500E-7	4.206993E-3
1.681000E-7	4.203567E-3
1.681500E-7	4.165882E-3
1.682000E-7	4.093939E-3
1.682500E-7	4.011717E-3
1.683000E-7	3.932922E-3
1.683500E-7	3.860978E-3
1.684000E-7	3.802738E-3
1.684500E-7	3.758201E-3
1.685000E-7	3.734220E-3
1.685500E-7	3.737646E-3
1.686000E-7	3.758201E-3
1.686500E-7	3.778757E-3
1.687000E-7	3.799312E-3
1.687500E-7	3.826719E-3
1.688000E-7	3.840423E-3
1.688500E-7	3.823293E-3
1.689000E-7	3.792460E-3
1.689500E-7	3.761627E-3
1.690000E-7	3.720517E-3
1.690500E-7	3.682832E-3
1.691000E-7	3.662277E-3
1.691500E-7	3.655425E-3
1.692000E-7	3.658851E-3
1.692500E-7	3.665702E-3
1.693000E-7	3.669128E-3
1.693500E-7	3.699961E-3
1.694000E-7	3.737646E-3
1.694500E-7	3.720517E-3
1.695000E-7	3.703387E-3
1.695500E-7	3.734220E-3
1.696000E-7	3.741072E-3
1.696500E-7	3.696535E-3
1.697000E-7	3.669128E-3
1.697500E-7	3.638295E-3
1.698000E-7	3.590333E-3
1.698500E-7	3.549222E-3
1.699000E-7	3.501260E-3
1.699500E-7	3.446445E-3
1.700000E-7	3.439594E-3
1.700500E-7	3.456723E-3
1.701000E-7	3.436168E-3
1.701500E-7	3.460149E-3
1.702000E-7	3.549222E-3
1.702500E-7	3.610888E-3
1.703000E-7	3.672554E-3
1.703500E-7	3.782183E-3
1.704000E-7	3.891811E-3
1.704500E-7	3.960329E-3
1.705000E-7	4.015143E-3
1.705500E-7	4.069957E-3
1.706000E-7	4.087087E-3
1.706500E-7	4.066532E-3
1.707000E-7	4.025421E-3
1.707500E-7	3.967181E-3
1.708000E-7	3.891811E-3
1.708500E-7	3.830145E-3
1.709000E-7	3.782183E-3
1.709500E-7	3.723943E-3
1.710000E-7	3.682832E-3
1.710500E-7	3.672554E-3
1.711000E-7	3.682832E-3
1.711500E-7	3.696535E-3
1.712000E-7	3.713665E-3
1.712500E-7	3.734220E-3
1.713000E-7	3.737646E-3
1.713500E-7	3.741072E-3
1.714000E-7	3.734220E-3
1.714500E-7	3.686258E-3
1.715000E-7	3.600610E-3
1.715500E-7	3.525241E-3
1.716000E-7	3.480704E-3
1.716500E-7	3.429316E-3
1.717000E-7	3.398483E-3
1.717500E-7	3.419038E-3
1.718000E-7	3.415612E-3
1.718500E-7	3.425890E-3
1.719000E-7	3.528667E-3
1.719500E-7	3.648573E-3
1.720000E-7	3.730794E-3
1.720500E-7	3.826719E-3
1.721000E-7	3.908941E-3
1.721500E-7	3.936348E-3
1.722000E-7	3.953477E-3
1.722500E-7	3.946625E-3
1.723000E-7	3.857552E-3
1.723500E-7	3.747924E-3
1.724000E-7	3.679406E-3
1.724500E-7	3.600610E-3
1.725000E-7	3.514963E-3
1.725500E-7	3.497834E-3
1.726000E-7	3.514963E-3
1.726500E-7	3.532093E-3
1.727000E-7	3.566352E-3
1.727500E-7	3.628018E-3
1.728000E-7	3.672554E-3
1.728500E-7	3.710239E-3
1.729000E-7	3.751350E-3
1.729500E-7	3.789034E-3
1.730000E-7	3.789034E-3
1.730500E-7	3.751350E-3
1.731000E-7	3.706813E-3
1.731500E-7	3.669128E-3
1.732000E-7	3.624592E-3
1.732500E-7	3.580055E-3
1.733000E-7	3.583481E-3
1.733500E-7	3.607462E-3
1.734000E-7	3.648573E-3
1.734500E-7	3.699961E-3
1.735000E-7	3.744498E-3
1.735500E-7	3.799312E-3
1.736000E-7	3.867830E-3
1.736500E-7	3.912366E-3
1.737000E-7	3.929496E-3
1.737500E-7	3.939774E-3
1.738000E-7	3.905515E-3
1.738500E-7	3.816442E-3
1.739000E-7	3.723943E-3
1.739500E-7	3.641721E-3
1.740000E-7	3.545796E-3
1.740500E-7	3.453297E-3
1.741000E-7	3.391631E-3
1.741500E-7	3.357372E-3
1.742000E-7	3.347095E-3
1.742500E-7	3.357372E-3
1.743000E-7	3.395057E-3
1.743500E-7	3.443020E-3
1.744000E-7	3.494408E-3
1.744500E-7	3.538944E-3
1.745000E-7	3.597185E-3
1.745500E-7	3.662277E-3
1.746000E-7	3.706813E-3
1.746500E-7	3.730794E-3
1.747000E-7	3.754776E-3
1.747500E-7	3.768479E-3
1.748000E-7	3.771905E-3
1.748500E-7	3.754776E-3
1.749000E-7	3.699961E-3
1.749500E-7	3.648573E-3
1.750000E-7	3.621166E-3
1.750500E-7	3.593759E-3
1.751000E-7	3.566352E-3
1.751500E-7	3.549222E-3
1.752000E-7	3.521815E-3
1.752500E-7	3.494408E-3
1.753000E-7	3.487556E-3
1.753500E-7	3.480704E-3
1.754000E-7	3.463575E-3
1.754500E-7	3.463575E-3
1.755000E-7	3.480704E-3
1.755500E-7	3.477278E-3
1.756000E-7	3.470427E-3
1.756500E-7	3.490982E-3
1.757000E-7	3.501260E-3
1.757500E-7	3.487556E-3
1.758000E-7	3.449871E-3
1.758500E-7	3.412187E-3
1.759000E-7	3.395057E-3
1.759500E-7	3.381354E-3
1.760000E-7	3.374502E-3
1.760500E-7	3.401909E-3
1.761000E-7	3.460149E-3
1.761500E-7	3.528667E-3
1.762000E-7	3.586907E-3
1.762500E-7	3.645147E-3
1.763000E-7	3.696535E-3
1.763500E-7	3.741072E-3
1.764000E-7	3.775331E-3
1.764500E-7	3.785609E-3
1.765000E-7	3.768479E-3
1.765500E-7	3.734220E-3
1.766000E-7	3.686258E-3
1.766500E-7	3.645147E-3
1.767000E-7	3.617740E-3
1.767500E-7	3.593759E-3
1.768000E-7	3.586907E-3
1.768500E-7	3.597185E-3
1.769000E-7	3.607462E-3
1.769500E-7	3.614314E-3
1.770000E-7	3.631444E-3
1.770500E-7	3.655425E-3
1.771000E-7	3.662277E-3
1.771500E-7	3.651999E-3
1.772000E-7	3.631444E-3
1.772500E-7	3.600610E-3
1.773000E-7	3.552648E-3
1.773500E-7	3.487556E-3
1.774000E-7	3.432742E-3
1.774500E-7	3.388205E-3
1.775000E-7	3.343669E-3
1.775500E-7	3.302558E-3
1.776000E-7	3.285429E-3
1.776500E-7	3.302558E-3
1.777000E-7	3.340243E-3
1.777500E-7	3.384779E-3
1.778000E-7	3.449871E-3
1.778500E-7	3.535519E-3
1.779000E-7	3.628018E-3
1.779500E-7	3.693110E-3
1.780000E-7	3.727368E-3
1.780500E-7	3.747924E-3
1.781000E-7	3.771905E-3
1.781500E-7	3.758201E-3
1.782000E-7	3.686258E-3
1.782500E-7	3.604036E-3
1.783000E-7	3.532093E-3
1.783500E-7	3.415612E-3
1.784000E-7	3.282003E-3
1.784500E-7	3.179226E-3
1.785000E-7	3.107282E-3
1.785500E-7	3.059320E-3
1.786000E-7	3.049042E-3
1.786500E-7	3.055894E-3
1.787000E-7	3.086727E-3
1.787500E-7	3.158671E-3
1.788000E-7	3.264873E-3
1.788500E-7	3.395057E-3
1.789000E-7	3.532093E-3
1.789500E-7	3.669128E-3
1.790000E-7	3.778757E-3
1.790500E-7	3.840423E-3
1.791000E-7	3.884959E-3
1.791500E-7	3.919218E-3
1.792000E-7	3.891811E-3
1.792500E-7	3.809590E-3
1.793000E-7	3.723943E-3
1.793500E-7	3.638295E-3
1.794000E-7	3.525241E-3
1.794500E-7	3.415612E-3
1.795000E-7	3.309410E-3
1.795500E-7	3.186078E-3
1.796000E-7	3.086727E-3
1.796500E-7	3.042190E-3
1.797000E-7	3.007932E-3
1.797500E-7	2.990802E-3
1.798000E-7	3.007932E-3
1.798500E-7	3.049042E-3
1.799000E-7	3.093579E-3
1.799500E-7	3.141541E-3
1.800000E-7	3.182652E-3
1.800500E-7	3.220337E-3
1.801000E-7	3.264873E-3
1.801500E-7	3.319688E-3
1.802000E-7	3.347095E-3
1.802500E-7	3.340243E-3
1.803000E-7	3.347095E-3
1.803500E-7	3.371076E-3
1.804000E-7	3.374502E-3
1.804500E-7	3.367650E-3
1.805000E-7	3.371076E-3
1.805500E-7	3.377928E-3
1.806000E-7	3.377928E-3
1.806500E-7	3.367650E-3
1.807000E-7	3.347095E-3
1.807500E-7	3.305984E-3
1.808000E-7	3.261447E-3
1.808500E-7	3.234040E-3
1.809000E-7	3.196355E-3
1.809500E-7	3.138115E-3
1.810000E-7	3.093579E-3
1.810500E-7	3.073023E-3
1.811000E-7	3.038765E-3
1.811500E-7	3.014783E-3
1.812000E-7	3.038765E-3
1.812500E-7	3.042190E-3
1.813000E-7	3.001080E-3
1.813500E-7	2.990802E-3
1.814000E-7	2.997654E-3
1.814500E-7	2.990802E-3
1.815000E-7	2.987376E-3
1.815500E-7	2.997654E-3
1.816000E-7	3.001080E-3
1.816500E-7	2.994228E-3
1.817000E-7	3.001080E-3
1.817500E-7	3.001080E-3
1.818000E-7	3.004506E-3
1.818500E-7	3.028487E-3
1.819000E-7	3.042190E-3
1.819500E-7	3.035339E-3
1.820000E-7	3.045616E-3
1.820500E-7	3.079875E-3
1.821000E-7	3.107282E-3
1.821500E-7	3.131264E-3
1.822000E-7	3.165522E-3
1.822500E-7	3.186078E-3
1.823000E-7	3.210059E-3
1.823500E-7	3.234040E-3
1.824000E-7	3.234040E-3
1.824500E-7	3.247744E-3
1.825000E-7	3.268299E-3
1.825500E-7	3.258021E-3
1.826000E-7	3.230614E-3
1.826500E-7	3.216911E-3
1.827000E-7	3.203207E-3
1.827500E-7	3.210059E-3
1.828000E-7	3.237466E-3
1.828500E-7	3.240892E-3
1.829000E-7	3.234040E-3
1.829500E-7	3.251170E-3
1.830000E-7	3.278577E-3
1.830500E-7	3.261447E-3
1.831000E-7	3.230614E-3
1.831500E-7	3.216911E-3
1.832000E-7	3.189504E-3
1.832500E-7	3.131264E-3
1.833000E-7	3.073023E-3
1.833500E-7	3.021635E-3
1.834000E-7	2.973673E-3
1.834500E-7	2.925710E-3
1.835000E-7	2.891451E-3
1.835500E-7	2.853766E-3
1.836000E-7	2.819508E-3
1.836500E-7	2.812656E-3
1.837000E-7	2.812656E-3
1.837500E-7	2.798952E-3
1.838000E-7	2.785249E-3
1.838500E-7	2.792100E-3
1.839000E-7	2.809230E-3
1.839500E-7	2.836637E-3
1.840000E-7	2.864044E-3
1.840500E-7	2.894877E-3
1.841000E-7	2.942840E-3
1.841500E-7	3.004506E-3
1.842000E-7	3.062746E-3
1.842500E-7	3.124412E-3
1.843000E-7	3.189504E-3
1.843500E-7	3.258021E-3
1.844000E-7	3.326539E-3
1.844500E-7	3.395057E-3
1.845000E-7	3.460149E-3
1.845500E-7	3.525241E-3
1.846000E-7	3.590333E-3
1.846500E-7	3.662277E-3
1.847000E-7	3.723943E-3
1.847500E-7	3.747924E-3
1.848000E-7	3.744498E-3
1.848500E-7	3.713665E-3
1.849000E-7	3.651999E-3
1.849500E-7	3.559500E-3
1.850000E-7	3.446445E-3
1.850500E-7	3.305984E-3
1.851000E-7	3.162097E-3
1.851500E-7	3.035339E-3
1.852000E-7	2.949691E-3
1.852500E-7	2.901729E-3
1.853000E-7	2.881174E-3
1.853500E-7	2.877748E-3
1.854000E-7	2.908581E-3
1.854500E-7	2.990802E-3
1.855000E-7	3.059320E-3
1.855500E-7	3.086727E-3
1.856000E-7	3.114134E-3
1.856500E-7	3.110708E-3
1.857000E-7	3.055894E-3
1.857500E-7	2.997654E-3
1.858000E-7	2.956543E-3
1.858500E-7	2.908581E-3
1.859000E-7	2.860618E-3
1.859500E-7	2.840063E-3
1.860000E-7	2.846915E-3
1.860500E-7	2.864044E-3
1.861000E-7	2.888025E-3
1.861500E-7	2.918858E-3
1.862000E-7	2.959969E-3
1.862500E-7	2.987376E-3
1.863000E-7	2.990802E-3
1.863500E-7	2.949691E-3
1.864000E-7	2.870896E-3
1.864500E-7	2.757842E-3
1.865000E-7	2.648213E-3
1.865500E-7	2.548862E-3
1.866000E-7	2.446086E-3
1.866500E-7	2.353586E-3
1.867000E-7	2.315902E-3
1.867500E-7	2.336457E-3
1.868000E-7	2.401549E-3
1.868500E-7	2.504326E-3
1.869000E-7	2.624232E-3
1.869500E-7	2.744138E-3
1.870000E-7	2.884599E-3
1.870500E-7	3.025061E-3
1.871000E-7	3.114134E-3
1.871500E-7	3.168948E-3
1.872000E-7	3.213485E-3
1.872500E-7	3.223763E-3
1.873000E-7	3.179226E-3
1.873500E-7	3.127838E-3
1.874000E-7	3.090153E-3
1.874500E-7	3.031913E-3
1.875000E-7	2.983950E-3
1.875500E-7	2.963395E-3
1.876000E-7	2.915432E-3
1.876500E-7	2.874322E-3
1.877000E-7	2.867470E-3
1.877500E-7	2.853766E-3
1.878000E-7	2.846915E-3
1.878500E-7	2.864044E-3
1.879000E-7	2.867470E-3
1.879500E-7	2.870896E-3
1.880000E-7	2.905155E-3
1.880500E-7	2.932562E-3
1.881000E-7	2.959969E-3
1.881500E-7	3.021635E-3
1.882000E-7	3.097005E-3
1.882500E-7	3.168948E-3
1.883000E-7	3.240892E-3
1.883500E-7	3.319688E-3
1.884000E-7	3.398483E-3
1.884500E-7	3.473853E-3
1.885000E-7	3.535519E-3
1.885500E-7	3.573203E-3
1.886000E-7	3.600610E-3
1.886500E-7	3.610888E-3
1.887000E-7	3.566352E-3
1.887500E-7	3.511537E-3
1.888000E-7	3.487556E-3
1.888500E-7	3.436168E-3
1.889000E-7	3.374502E-3
1.889500E-7	3.336817E-3
1.890000E-7	3.285429E-3
1.890500E-7	3.189504E-3
1.891000E-7	3.097005E-3
1.891500E-7	3.018209E-3
1.892000E-7	2.929136E-3
1.892500E-7	2.833211E-3
1.893000E-7	2.750990E-3
1.893500E-7	2.689324E-3
1.894000E-7	2.637935E-3
1.894500E-7	2.624232E-3
1.895000E-7	2.655065E-3
1.895500E-7	2.713305E-3
1.896000E-7	2.778397E-3
1.896500E-7	2.836637E-3
1.897000E-7	2.891451E-3
1.897500E-7	2.949691E-3
1.898000E-7	2.990802E-3
1.898500E-7	3.018209E-3
1.899000E-7	3.021635E-3
1.899500E-7	2.990802E-3
1.900000E-7	2.973673E-3
1.900500E-7	2.963395E-3
1.901000E-7	2.935988E-3
1.901500E-7	2.905155E-3
1.902000E-7	2.898303E-3
1.902500E-7	2.891451E-3
1.903000E-7	2.901729E-3
1.903500E-7	2.949691E-3
1.904000E-7	2.987376E-3
1.904500E-7	2.983950E-3
1.905000E-7	2.997654E-3
1.905500E-7	3.042190E-3
1.906000E-7	3.035339E-3
1.906500E-7	2.990802E-3
1.907000E-7	2.980524E-3
1.907500E-7	2.977098E-3
1.908000E-7	2.929136E-3
1.908500E-7	2.891451E-3
1.909000E-7	2.870896E-3
1.909500E-7	2.826359E-3
1.910000E-7	2.778397E-3
1.910500E-7	2.757842E-3
1.911000E-7	2.737286E-3
1.911500E-7	2.723583E-3
1.912000E-7	2.720157E-3
1.912500E-7	2.720157E-3
1.913000E-7	2.730434E-3
1.913500E-7	2.788675E-3
1.914000E-7	2.864044E-3
1.914500E-7	2.901729E-3
1.915000E-7	2.918858E-3
1.915500E-7	2.935988E-3
1.916000E-7	2.942840E-3
1.916500E-7	2.956543E-3
1.917000E-7	2.959969E-3
1.917500E-7	2.925710E-3
1.918000E-7	2.877748E-3
1.918500E-7	2.829785E-3
1.919000E-7	2.750990E-3
1.919500E-7	2.661917E-3
1.920000E-7	2.607102E-3
1.920500E-7	2.559140E-3
1.921000E-7	2.500900E-3
1.921500E-7	2.480344E-3
1.922000E-7	2.507752E-3
1.922500E-7	2.542010E-3
1.923000E-7	2.586547E-3
1.923500E-7	2.651639E-3
1.924000E-7	2.706453E-3
1.924500E-7	2.750990E-3
1.925000E-7	2.792100E-3
1.925500E-7	2.829785E-3
1.926000E-7	2.853766E-3
1.926500E-7	2.877748E-3
1.927000E-7	2.908581E-3
1.927500E-7	2.922284E-3
1.928000E-7	2.894877E-3
1.928500E-7	2.843489E-3
1.929000E-7	2.771545E-3
1.929500E-7	2.672194E-3
1.930000E-7	2.572843E-3
1.930500E-7	2.490622E-3
1.931000E-7	2.387845E-3
1.931500E-7	2.309050E-3
1.932000E-7	2.267939E-3
1.932500E-7	2.219977E-3
1.933000E-7	2.168588E-3
1.933500E-7	2.168588E-3
1.934000E-7	2.195996E-3
1.934500E-7	2.230254E-3
1.935000E-7	2.291920E-3
1.935500E-7	2.360438E-3
1.936000E-7	2.425530E-3
1.936500E-7	2.497474E-3
1.937000E-7	2.552288E-3
1.937500E-7	2.600251E-3
1.938000E-7	2.658491E-3
1.938500E-7	2.696176E-3
1.939000E-7	2.699601E-3
1.939500E-7	2.685898E-3
1.940000E-7	2.689324E-3
1.940500E-7	2.703027E-3
1.941000E-7	2.706453E-3
1.941500E-7	2.696176E-3
1.942000E-7	2.716731E-3
1.942500E-7	2.757842E-3
1.943000E-7	2.792100E-3
1.943500E-7	2.798952E-3
1.944000E-7	2.816082E-3
1.944500E-7	2.850341E-3
1.945000E-7	2.864044E-3
1.945500E-7	2.840063E-3
1.946000E-7	2.809230E-3
1.946500E-7	2.771545E-3
1.947000E-7	2.713305E-3
1.947500E-7	2.661917E-3
1.948000E-7	2.634509E-3
1.948500E-7	2.600251E-3
1.949000E-7	2.562566E-3
1.949500E-7	2.538585E-3
1.950000E-7	2.538585E-3
1.950500E-7	2.545436E-3
1.951000E-7	2.559140E-3
1.951500E-7	2.565992E-3
1.952000E-7	2.555714E-3
1.952500E-7	2.548862E-3
1.953000E-7	2.555714E-3
1.953500E-7	2.542010E-3
1.954000E-7	2.514603E-3
1.954500E-7	2.487196E-3
1.955000E-7	2.463215E-3
1.955500E-7	2.449511E-3
1.956000E-7	2.456363E-3
1.956500E-7	2.473493E-3
1.957000E-7	2.494048E-3
1.957500E-7	2.514603E-3
1.958000E-7	2.542010E-3
1.958500E-7	2.576269E-3
1.959000E-7	2.620806E-3
1.959500E-7	2.648213E-3
1.960000E-7	2.637935E-3
1.960500E-7	2.600251E-3
1.961000E-7	2.562566E-3
1.961500E-7	2.511177E-3
1.962000E-7	2.442660E-3
1.962500E-7	2.367290E-3
1.963000E-7	2.312476E-3
1.963500E-7	2.281643E-3
1.964000E-7	2.278217E-3
1.964500E-7	2.295346E-3
1.965000E-7	2.336457E-3
1.965500E-7	2.432382E-3
1.966000E-7	2.562566E-3
1.966500E-7	2.682472E-3
1.967000E-7	2.798952E-3
1.967500E-7	2.898303E-3
1.968000E-7	2.953117E-3
1.968500E-7	2.997654E-3
1.969000E-7	3.011357E-3
1.969500E-7	2.949691E-3
1.970000E-7	2.853766E-3
1.970500E-7	2.768119E-3
1.971000E-7	2.679046E-3
1.971500E-7	2.565992E-3
1.972000E-7	2.473493E-3
1.972500E-7	2.425530E-3
1.973000E-7	2.415253E-3
1.973500E-7	2.435808E-3
1.974000E-7	2.449511E-3
1.974500E-7	2.449511E-3
1.975000E-7	2.490622E-3
1.975500E-7	2.538585E-3
1.976000E-7	2.552288E-3
1.976500E-7	2.569418E-3
1.977000E-7	2.586547E-3
1.977500E-7	2.548862E-3
1.978000E-7	2.487196E-3
1.978500E-7	2.456363E-3
1.979000E-7	2.422104E-3
1.979500E-7	2.394697E-3
1.980000E-7	2.408401E-3
1.980500E-7	2.425530E-3
1.981000E-7	2.425530E-3
1.981500E-7	2.449511E-3
1.982000E-7	2.480344E-3
1.982500E-7	2.470067E-3
1.983000E-7	2.452937E-3
1.983500E-7	2.476919E-3
1.984000E-7	2.490622E-3
1.984500E-7	2.449511E-3
1.985000E-7	2.408401E-3
1.985500E-7	2.398123E-3
1.986000E-7	2.387845E-3
1.986500E-7	2.394697E-3
1.987000E-7	2.425530E-3
1.987500E-7	2.442660E-3
1.988000E-7	2.459789E-3
1.988500E-7	2.490622E-3
1.989000E-7	2.500900E-3
1.989500E-7	2.490622E-3
1.990000E-7	2.473493E-3
1.990500E-7	2.452937E-3
1.991000E-7	2.442660E-3
1.991500E-7	2.428956E-3
1.992000E-7	2.387845E-3
1.992500E-7	2.333031E-3
1.993000E-7	2.295346E-3
1.993500E-7	2.295346E-3
1.994000E-7	2.305624E-3
1.994500E-7	2.291920E-3
1.995000E-7	2.274791E-3
1.995500E-7	2.285069E-3
1.996000E-7	2.322753E-3
1.996500E-7	2.346735E-3
1.997000E-7	2.370716E-3
1.997500E-7	2.418678E-3
1.998000E-7	2.483770E-3
1.998500E-7	2.538585E-3
1.999000E-7	2.583121E-3
1.999500E-7	2.644787E-3
2.000000E-7	2.709879E-3
2.000500E-7	2.774971E-3
