Study Name	Ge_thermal
Sample Name	110_111_vac_phase
Run Name	spot01
Operator	Cody
Date	8/10/2017
Time	11:54
Sign	FIX
Grating Spacing	04.80um
Channel	3
Number Traces	10000
Files in Batch	1
Batch Number	1
dt	50.000001E-12
time stamp (ms)	11:56:05
	
Time	Amplitude
0.000000E+0	-3.631454E-4
5.000000E-11	-3.288864E-4
1.000000E-10	-2.740720E-4
1.500000E-10	-2.038411E-4
2.000000E-10	-1.044900E-4
2.500000E-10	5.138850E-6
3.000000E-10	1.147677E-4
3.500000E-10	2.295353E-4
4.000000E-10	3.425900E-4
4.500000E-10	4.350893E-4
5.000000E-10	5.087462E-4
5.500000E-10	5.789771E-4
6.000000E-10	6.235138E-4
6.500000E-10	6.320786E-4
7.000000E-10	6.252268E-4
7.500000E-10	6.063843E-4
8.000000E-10	5.549958E-4
8.500000E-10	4.710613E-4
9.000000E-10	3.854138E-4
9.500000E-10	2.774979E-4
1.000000E-9	1.387490E-4
1.050000E-9	1.027770E-5
1.100000E-9	-9.935110E-5
1.150000E-9	-2.209706E-4
1.200000E-9	-3.203217E-4
1.250000E-9	-3.871267E-4
1.300000E-9	-4.402282E-4
1.350000E-9	-4.642095E-4
1.400000E-9	-4.436541E-4
1.450000E-9	-4.025433E-4
1.500000E-9	-3.528677E-4
1.550000E-9	-2.997663E-4
1.600000E-9	-2.381001E-4
1.650000E-9	-1.678691E-4
1.700000E-9	-1.062029E-4
1.750000E-9	-5.995325E-5
1.800000E-9	-1.199065E-5
1.850000E-9	2.912015E-5
1.900000E-9	5.652735E-5
1.950000E-9	6.337915E-5
2.000000E-9	6.166620E-5
2.050000E-9	5.824030E-5
2.100000E-9	5.310145E-5
2.150000E-9	3.425900E-5
2.200000E-9	1.027770E-5
2.250000E-9	-3.425900E-6
2.300000E-9	-1.541655E-5
2.350000E-9	-2.912015E-5
2.400000E-9	-3.597195E-5
2.450000E-9	-4.111080E-5
2.500000E-9	-4.282375E-5
2.550000E-9	-2.740720E-5
2.600000E-9	-6.851800E-6
2.650000E-9	1.712950E-6
2.700000E-9	2.226835E-5
2.750000E-9	7.194390E-5
2.800000E-9	1.181936E-4
2.850000E-9	1.507396E-4
2.900000E-9	1.935634E-4
2.950000E-9	2.295353E-4
3.000000E-9	2.363871E-4
3.050000E-9	2.295353E-4
3.100000E-9	2.106929E-4
3.150000E-9	1.695821E-4
3.200000E-9	1.062029E-4
3.250000E-9	2.055540E-5
3.300000E-9	-9.078635E-5
3.350000E-9	-2.106929E-4
3.400000E-9	-3.425900E-4
3.450000E-9	-4.779131E-4
3.500000E-9	-5.909678E-4
3.550000E-9	-6.697635E-4
3.600000E-9	-7.211520E-4
3.650000E-9	-7.297167E-4
3.700000E-9	-6.886059E-4
3.750000E-9	-6.046714E-4
3.800000E-9	-4.984685E-4
3.850000E-9	-3.751361E-4
3.900000E-9	-2.518037E-4
3.950000E-9	-1.318972E-4
4.000000E-9	-2.912015E-5
4.050000E-9	4.453670E-5
4.100000E-9	8.564750E-5
4.150000E-9	9.935110E-5
4.200000E-9	9.421225E-5
4.250000E-9	7.879570E-5
4.300000E-9	4.796260E-5
4.350000E-9	8.564750E-6
4.400000E-9	-2.055540E-5
4.450000E-9	-2.569425E-5
4.500000E-9	-2.398130E-5
4.550000E-9	3.425900E-6
4.600000E-9	7.536980E-5
4.650000E-9	1.575914E-4
4.700000E-9	2.106929E-4
4.750000E-9	2.569425E-4
4.800000E-9	2.929145E-4
4.850000E-9	2.929145E-4
4.900000E-9	2.449519E-4
4.950000E-9	1.507396E-4
5.000000E-9	2.912015E-5
5.050000E-9	-1.096288E-4
5.100000E-9	-2.620814E-4
5.150000E-9	-4.196728E-4
5.200000E-9	-5.567088E-4
5.250000E-9	-6.509210E-4
5.300000E-9	-7.108743E-4
5.350000E-9	-7.417074E-4
5.400000E-9	-7.297167E-4
5.450000E-9	-6.731894E-4
5.500000E-9	-5.755512E-4
5.550000E-9	-4.436541E-4
5.600000E-9	-2.843497E-4
5.650000E-9	-1.164806E-4
5.700000E-9	3.254605E-5
5.750000E-9	1.456008E-4
5.800000E-9	2.312483E-4
5.850000E-9	2.946274E-4
5.900000E-9	3.083310E-4
5.950000E-9	2.860627E-4
6.000000E-9	2.569425E-4
6.050000E-9	2.124058E-4
6.100000E-9	1.541655E-4
6.150000E-9	1.147677E-4
6.200000E-9	8.736045E-5
6.250000E-9	5.481440E-5
6.300000E-9	4.111080E-5
6.350000E-9	5.995325E-5
6.400000E-9	9.249930E-5
6.450000E-9	1.370360E-4
6.500000E-9	1.918504E-4
6.550000E-9	2.432389E-4
6.600000E-9	2.860627E-4
6.650000E-9	3.203217E-4
6.700000E-9	3.288864E-4
6.750000E-9	3.100440E-4
6.800000E-9	2.706461E-4
6.850000E-9	2.209706E-4
6.900000E-9	1.558785E-4
6.950000E-9	8.222160E-5
7.000000E-9	1.884245E-5
7.050000E-9	-4.111080E-5
7.100000E-9	-1.044900E-4
7.150000E-9	-1.524526E-4
7.200000E-9	-1.781468E-4
7.250000E-9	-1.987022E-4
7.300000E-9	-2.106929E-4
7.350000E-9	-2.004152E-4
7.400000E-9	-1.764339E-4
7.450000E-9	-1.593044E-4
7.500000E-9	-1.456008E-4
7.550000E-9	-1.284713E-4
7.600000E-9	-1.164806E-4
7.650000E-9	-1.062029E-4
7.700000E-9	-7.536980E-5
7.750000E-9	-4.111080E-5
7.800000E-9	-6.851800E-6
7.850000E-9	5.652735E-5
7.900000E-9	1.695821E-4
7.950000E-9	3.323123E-4
8.000000E-9	5.669865E-4
8.050000E-9	9.267060E-4
8.100000E-9	1.462859E-3
8.150000E-9	2.213131E-3
8.200000E-9	3.208355E-3
8.250000E-9	4.482790E-3
8.300000E-9	6.055278E-3
8.350000E-9	7.915542E-3
8.400000E-9	1.004817E-2
8.450000E-9	1.241717E-2
8.500000E-9	1.492836E-2
8.550000E-9	1.749607E-2
8.600000E-9	2.003980E-2
8.650000E-9	2.245164E-2
8.700000E-9	2.464079E-2
8.750000E-9	2.653188E-2
8.800000E-9	2.807525E-2
8.850000E-9	2.925719E-2
8.900000E-9	3.007769E-2
8.950000E-9	3.056074E-2
9.000000E-9	3.077143E-2
9.050000E-9	3.077143E-2
9.100000E-9	3.060528E-2
9.150000E-9	3.034662E-2
9.200000E-9	3.005542E-2
9.250000E-9	2.972996E-2
9.300000E-9	2.936510E-2
9.350000E-9	2.895742E-2
9.400000E-9	2.846238E-2
9.450000E-9	2.780803E-2
9.500000E-9	2.694813E-2
9.550000E-9	2.583129E-2
9.600000E-9	2.444380E-2
9.650000E-9	2.279765E-2
9.700000E-9	2.088771E-2
9.750000E-9	1.874995E-2
9.800000E-9	1.649400E-2
9.850000E-9	1.421920E-2
9.900000E-9	1.198551E-2
9.950000E-9	9.909416E-3
1.000000E-8	8.115957E-3
1.005000E-8	6.661663E-3
1.010000E-8	5.591069E-3
1.015000E-8	4.962416E-3
1.020000E-8	4.797973E-3
1.025000E-8	5.080610E-3
1.030000E-8	5.777781E-3
1.035000E-8	6.838097E-3
1.040000E-8	8.218734E-3
1.045000E-8	9.864879E-3
1.050000E-8	1.167547E-2
1.055000E-8	1.357170E-2
1.060000E-8	1.552104E-2
1.065000E-8	1.746866E-2
1.070000E-8	1.934777E-2
1.075000E-8	2.112924E-2
1.080000E-8	2.279937E-2
1.085000E-8	2.431190E-2
1.090000E-8	2.563944E-2
1.095000E-8	2.678026E-2
1.100000E-8	2.768812E-2
1.105000E-8	2.833733E-2
1.110000E-8	2.873645E-2
1.115000E-8	2.887691E-2
1.120000E-8	2.870390E-2
1.125000E-8	2.819858E-2
1.130000E-8	2.736952E-2
1.135000E-8	2.623554E-2
1.140000E-8	2.481893E-2
1.145000E-8	2.316594E-2
1.150000E-8	2.132109E-2
1.155000E-8	1.934606E-2
1.160000E-8	1.731621E-2
1.165000E-8	1.531891E-2
1.170000E-8	1.342953E-2
1.175000E-8	1.173542E-2
1.180000E-8	1.032224E-2
1.185000E-8	9.244791E-3
1.190000E-8	8.537343E-3
1.195000E-8	8.229012E-3
1.200000E-8	8.326650E-3
1.205000E-8	8.813128E-3
1.210000E-8	9.659325E-3
1.215000E-8	1.081557E-2
1.220000E-8	1.223218E-2
1.225000E-8	1.385091E-2
1.230000E-8	1.558271E-2
1.235000E-8	1.737274E-2
1.240000E-8	1.918161E-2
1.245000E-8	2.093568E-2
1.250000E-8	2.258011E-2
1.255000E-8	2.409436E-2
1.260000E-8	2.544930E-2
1.265000E-8	2.660383E-2
1.270000E-8	2.753910E-2
1.275000E-8	2.823627E-2
1.280000E-8	2.867307E-2
1.285000E-8	2.884608E-2
1.290000E-8	2.873474E-2
1.295000E-8	2.832192E-2
1.300000E-8	2.761618E-2
1.305000E-8	2.663466E-2
1.310000E-8	2.537050E-2
1.315000E-8	2.384598E-2
1.320000E-8	2.213817E-2
1.325000E-8	2.030017E-2
1.330000E-8	1.836282E-2
1.335000E-8	1.641177E-2
1.340000E-8	1.454295E-2
1.345000E-8	1.280259E-2
1.350000E-8	1.127635E-2
1.355000E-8	1.004303E-2
1.360000E-8	9.118033E-3
1.365000E-8	8.520214E-3
1.370000E-8	8.316373E-3
1.375000E-8	8.499658E-3
1.380000E-8	9.023821E-3
1.385000E-8	9.876870E-3
1.390000E-8	1.103654E-2
1.395000E-8	1.242574E-2
1.400000E-8	1.398966E-2
1.405000E-8	1.569234E-2
1.410000E-8	1.748579E-2
1.415000E-8	1.928953E-2
1.420000E-8	2.103674E-2
1.425000E-8	2.267775E-2
1.430000E-8	2.416801E-2
1.435000E-8	2.546129E-2
1.440000E-8	2.652846E-2
1.445000E-8	2.732669E-2
1.450000E-8	2.783544E-2
1.455000E-8	2.806497E-2
1.460000E-8	2.798446E-2
1.465000E-8	2.757678E-2
1.470000E-8	2.687276E-2
1.475000E-8	2.588610E-2
1.480000E-8	2.462023E-2
1.485000E-8	2.313510E-2
1.490000E-8	2.149067E-2
1.495000E-8	1.971606E-2
1.500000E-8	1.786949E-2
1.505000E-8	1.602636E-2
1.510000E-8	1.422948E-2
1.515000E-8	1.253023E-2
1.520000E-8	1.099200E-2
1.525000E-8	9.657612E-3
1.530000E-8	8.573315E-3
1.535000E-8	7.795636E-3
1.540000E-8	7.341704E-3
1.545000E-8	7.218372E-3
1.550000E-8	7.449620E-3
1.555000E-8	8.052578E-3
1.560000E-8	8.991275E-3
1.565000E-8	1.022289E-2
1.570000E-8	1.170973E-2
1.575000E-8	1.339698E-2
1.580000E-8	1.522470E-2
1.585000E-8	1.713293E-2
1.590000E-8	1.904458E-2
1.595000E-8	2.089799E-2
1.600000E-8	2.262293E-2
1.605000E-8	2.412690E-2
1.610000E-8	2.535166E-2
1.615000E-8	2.629550E-2
1.620000E-8	2.693614E-2
1.625000E-8	2.724104E-2
1.630000E-8	2.720850E-2
1.635000E-8	2.685392E-2
1.640000E-8	2.620128E-2
1.645000E-8	2.527115E-2
1.650000E-8	2.409607E-2
1.655000E-8	2.269830E-2
1.660000E-8	2.113095E-2
1.665000E-8	1.944541E-2
1.670000E-8	1.767936E-2
1.675000E-8	1.586534E-2
1.680000E-8	1.408388E-2
1.685000E-8	1.238977E-2
1.690000E-8	1.082413E-2
1.695000E-8	9.428077E-3
1.700000E-8	8.256419E-3
1.705000E-8	7.355408E-3
1.710000E-8	6.769579E-3
1.715000E-8	6.521201E-3
1.720000E-8	6.623978E-3
1.725000E-8	7.100178E-3
1.730000E-8	7.934385E-3
1.735000E-8	9.068358E-3
1.740000E-8	1.047126E-2
1.745000E-8	1.212255E-2
1.750000E-8	1.394170E-2
1.755000E-8	1.584821E-2
1.760000E-8	1.778727E-2
1.765000E-8	1.966981E-2
1.770000E-8	2.140674E-2
1.775000E-8	2.295182E-2
1.780000E-8	2.426222E-2
1.785000E-8	2.528143E-2
1.790000E-8	2.597860E-2
1.795000E-8	2.632119E-2
1.800000E-8	2.629207E-2
1.805000E-8	2.592550E-2
1.810000E-8	2.522662E-2
1.815000E-8	2.418172E-2
1.820000E-8	2.284733E-2
1.825000E-8	2.129711E-2
1.830000E-8	1.955846E-2
1.835000E-8	1.769135E-2
1.840000E-8	1.578141E-2
1.845000E-8	1.387318E-2
1.850000E-8	1.202320E-2
1.855000E-8	1.030339E-2
1.860000E-8	8.770304E-3
1.865000E-8	7.468462E-3
1.870000E-8	6.440692E-3
1.875000E-8	5.705837E-3
1.880000E-8	5.286164E-3
1.885000E-8	5.190239E-3
1.890000E-8	5.416348E-3
1.895000E-8	5.962779E-3
1.900000E-8	6.814115E-3
1.905000E-8	7.920681E-3
1.910000E-8	9.236227E-3
1.915000E-8	1.073848E-2
1.920000E-8	1.238463E-2
1.925000E-8	1.411813E-2
1.930000E-8	1.587733E-2
1.935000E-8	1.760913E-2
1.940000E-8	1.924842E-2
1.945000E-8	2.074040E-2
1.950000E-8	2.204395E-2
1.955000E-8	2.311455E-2
1.960000E-8	2.390593E-2
1.965000E-8	2.439583E-2
1.970000E-8	2.456542E-2
1.975000E-8	2.439755E-2
1.980000E-8	2.390251E-2
1.985000E-8	2.310770E-2
1.990000E-8	2.202682E-2
1.995000E-8	2.068387E-2
2.000000E-8	1.913194E-2
2.005000E-8	1.742927E-2
2.010000E-8	1.562039E-2
2.015000E-8	1.376698E-2
2.020000E-8	1.194783E-2
2.025000E-8	1.022289E-2
2.030000E-8	8.619565E-3
2.035000E-8	7.213233E-3
2.040000E-8	6.062130E-3
2.045000E-8	5.173109E-3
2.050000E-8	4.573577E-3
2.055000E-8	4.314921E-3
2.060000E-8	4.388578E-3
2.065000E-8	4.785982E-3
2.070000E-8	5.500283E-3
2.075000E-8	6.517775E-3
2.080000E-8	7.797349E-3
2.085000E-8	9.309884E-3
2.090000E-8	1.099714E-2
2.095000E-8	1.281458E-2
2.100000E-8	1.473480E-2
2.105000E-8	1.667214E-2
2.110000E-8	1.853069E-2
2.115000E-8	2.024364E-2
2.120000E-8	2.174933E-2
2.125000E-8	2.296723E-2
2.130000E-8	2.386139E-2
2.135000E-8	2.439926E-2
2.140000E-8	2.455171E-2
2.145000E-8	2.431533E-2
2.150000E-8	2.370552E-2
2.155000E-8	2.271886E-2
2.160000E-8	2.140502E-2
2.165000E-8	1.985309E-2
2.170000E-8	1.811273E-2
2.175000E-8	1.623363E-2
2.180000E-8	1.429971E-2
2.185000E-8	1.239319E-2
2.190000E-8	1.055520E-2
2.195000E-8	8.847387E-3
2.200000E-8	7.334852E-3
2.205000E-8	6.033010E-3
2.210000E-8	4.965842E-3
2.215000E-8	4.164182E-3
2.220000E-8	3.646871E-3
2.225000E-8	3.400206E-3
2.230000E-8	3.437891E-3
2.235000E-8	3.775342E-3
2.240000E-8	4.397143E-3
2.245000E-8	5.287877E-3
2.250000E-8	6.430414E-3
2.255000E-8	7.788784E-3
2.260000E-8	9.328726E-3
2.265000E-8	1.098857E-2
2.270000E-8	1.271180E-2
2.275000E-8	1.445901E-2
2.280000E-8	1.617367E-2
2.285000E-8	1.775473E-2
2.290000E-8	1.914050E-2
2.295000E-8	2.029503E-2
2.300000E-8	2.115836E-2
2.305000E-8	2.169451E-2
2.310000E-8	2.189321E-2
2.315000E-8	2.173734E-2
2.320000E-8	2.123030E-2
2.325000E-8	2.040124E-2
2.330000E-8	1.928782E-2
2.335000E-8	1.794315E-2
2.340000E-8	1.642548E-2
2.345000E-8	1.478618E-2
2.350000E-8	1.306638E-2
2.355000E-8	1.132603E-2
2.360000E-8	9.638770E-3
2.365000E-8	8.066282E-3
2.370000E-8	6.656524E-3
2.375000E-8	5.459172E-3
2.380000E-8	4.510197E-3
2.385000E-8	3.830156E-3
2.390000E-8	3.427613E-3
2.395000E-8	3.300855E-3
2.400000E-8	3.441317E-3
2.405000E-8	3.862702E-3
2.410000E-8	4.535892E-3
2.415000E-8	5.407783E-3
2.420000E-8	6.468099E-3
2.425000E-8	7.709988E-3
2.430000E-8	9.087200E-3
2.435000E-8	1.055177E-2
2.440000E-8	1.206773E-2
2.445000E-8	1.359397E-2
2.450000E-8	1.508253E-2
2.455000E-8	1.649913E-2
2.460000E-8	1.777186E-2
2.465000E-8	1.884759E-2
2.470000E-8	1.970235E-2
2.475000E-8	2.028304E-2
2.480000E-8	2.055711E-2
2.485000E-8	2.052457E-2
2.490000E-8	2.015286E-2
2.495000E-8	1.944541E-2
2.500000E-8	1.845361E-2
2.505000E-8	1.721515E-2
2.510000E-8	1.574715E-2
2.515000E-8	1.412670E-2
2.520000E-8	1.244801E-2
2.525000E-8	1.075390E-2
2.530000E-8	9.080348E-3
2.535000E-8	7.506147E-3
2.540000E-8	6.087824E-3
2.545000E-8	4.847649E-3
2.550000E-8	3.823305E-3
2.555000E-8	3.067894E-3
2.560000E-8	2.591693E-3
2.565000E-8	2.382714E-3
2.570000E-8	2.449519E-3
2.575000E-8	2.788683E-3
2.580000E-8	3.377938E-3
2.585000E-8	4.217283E-3
2.590000E-8	5.277599E-3
2.595000E-8	6.517775E-3
2.600000E-8	7.898413E-3
2.605000E-8	9.361272E-3
2.610000E-8	1.085839E-2
2.615000E-8	1.236921E-2
2.620000E-8	1.385777E-2
2.625000E-8	1.525039E-2
2.630000E-8	1.647515E-2
2.635000E-8	1.751149E-2
2.640000E-8	1.833542E-2
2.645000E-8	1.889726E-2
2.650000E-8	1.914907E-2
2.655000E-8	1.910624E-2
2.660000E-8	1.879106E-2
2.665000E-8	1.817440E-2
2.670000E-8	1.725968E-2
2.675000E-8	1.610002E-2
2.680000E-8	1.474679E-2
2.685000E-8	1.325652E-2
2.690000E-8	1.167718E-2
2.695000E-8	1.004817E-2
2.700000E-8	8.426001E-3
2.705000E-8	6.875782E-3
2.710000E-8	5.450607E-3
2.715000E-8	4.201866E-3
2.720000E-8	3.158680E-3
2.725000E-8	2.355306E-3
2.730000E-8	1.819153E-3
2.735000E-8	1.550220E-3
2.740000E-8	1.548507E-3
2.745000E-8	1.848273E-3
2.750000E-8	2.435815E-3
2.755000E-8	3.263170E-3
2.760000E-8	4.311495E-3
2.765000E-8	5.568801E-3
2.770000E-8	6.980271E-3
2.775000E-8	8.485955E-3
2.780000E-8	1.004645E-2
2.785000E-8	1.161551E-2
2.790000E-8	1.312976E-2
2.795000E-8	1.452582E-2
2.800000E-8	1.576599E-2
2.805000E-8	1.680575E-2
2.810000E-8	1.759542E-2
2.815000E-8	1.810246E-2
2.820000E-8	1.831486E-2
2.825000E-8	1.823264E-2
2.830000E-8	1.785922E-2
2.835000E-8	1.719459E-2
2.840000E-8	1.626446E-2
2.845000E-8	1.511336E-2
2.850000E-8	1.378925E-2
2.855000E-8	1.232810E-2
2.860000E-8	1.077959E-2
2.865000E-8	9.198542E-3
2.870000E-8	7.638044E-3
2.875000E-8	6.149491E-3
2.880000E-8	4.789408E-3
2.885000E-8	3.610899E-3
2.890000E-8	2.646508E-3
2.895000E-8	1.908226E-3
2.900000E-8	1.435452E-3
2.905000E-8	1.262444E-3
2.910000E-8	1.363508E-3
2.915000E-8	1.731793E-3
2.920000E-8	2.370723E-3
2.925000E-8	3.249466E-3
2.930000E-8	4.309782E-3
2.935000E-8	5.522551E-3
2.940000E-8	6.862078E-3
2.945000E-8	8.290678E-3
2.950000E-8	9.753538E-3
2.955000E-8	1.119413E-2
2.960000E-8	1.257819E-2
2.965000E-8	1.384920E-2
2.970000E-8	1.495577E-2
2.975000E-8	1.588076E-2
2.980000E-8	1.660020E-2
2.985000E-8	1.706783E-2
2.990000E-8	1.725626E-2
2.995000E-8	1.718431E-2
3.000000E-8	1.684172E-2
3.005000E-8	1.621307E-2
3.010000E-8	1.532748E-2
3.015000E-8	1.424147E-2
3.020000E-8	1.298074E-2
3.025000E-8	1.157440E-2
3.030000E-8	1.007900E-2
3.035000E-8	8.547621E-3
3.040000E-8	7.041938E-3
3.045000E-8	5.608198E-3
3.050000E-8	4.263533E-3
3.055000E-8	3.050764E-3
3.060000E-8	2.036698E-3
3.065000E-8	1.255592E-3
3.070000E-8	7.228649E-4
3.075000E-8	4.676354E-4
3.080000E-8	5.036073E-4
3.085000E-8	8.205031E-4
3.090000E-8	1.411471E-3
3.095000E-8	2.276511E-3
3.100000E-8	3.376225E-3
3.105000E-8	4.657511E-3
3.110000E-8	6.074121E-3
3.115000E-8	7.576378E-3
3.120000E-8	9.102617E-3
3.125000E-8	1.059973E-2
3.130000E-8	1.200949E-2
3.135000E-8	1.326680E-2
3.140000E-8	1.433910E-2
3.145000E-8	1.520243E-2
3.150000E-8	1.581395E-2
3.155000E-8	1.615826E-2
3.160000E-8	1.624733E-2
3.165000E-8	1.608118E-2
3.170000E-8	1.566150E-2
3.175000E-8	1.499688E-2
3.180000E-8	1.412841E-2
3.185000E-8	1.310235E-2
3.190000E-8	1.192898E-2
3.195000E-8	1.061001E-2
3.200000E-8	9.198542E-3
3.205000E-8	7.752812E-3
3.210000E-8	6.307082E-3
3.215000E-8	4.895611E-3
3.220000E-8	3.569788E-3
3.225000E-8	2.369010E-3
3.230000E-8	1.339527E-3
3.235000E-8	5.327275E-4
3.240000E-8	-8.564750E-6
3.245000E-8	-2.637943E-4
3.250000E-8	-2.312483E-4
3.255000E-8	9.592520E-5
3.260000E-8	7.194390E-4
3.265000E-8	1.620451E-3
3.270000E-8	2.744146E-3
3.275000E-8	4.051127E-3
3.280000E-8	5.490005E-3
3.285000E-8	6.983697E-3
3.290000E-8	8.470538E-3
3.295000E-8	9.917981E-3
3.300000E-8	1.127635E-2
3.305000E-8	1.249083E-2
3.310000E-8	1.352374E-2
3.315000E-8	1.435452E-2
3.320000E-8	1.495919E-2
3.325000E-8	1.531720E-2
3.330000E-8	1.543025E-2
3.335000E-8	1.530521E-2
3.340000E-8	1.494035E-2
3.345000E-8	1.433225E-2
3.350000E-8	1.351175E-2
3.355000E-8	1.251310E-2
3.360000E-8	1.135686E-2
3.365000E-8	1.005844E-2
3.370000E-8	8.672666E-3
3.375000E-8	7.257769E-3
3.380000E-8	5.851437E-3
3.385000E-8	4.513623E-3
3.390000E-8	3.290577E-3
3.395000E-8	2.201141E-3
3.400000E-8	1.283000E-3
3.405000E-8	5.824030E-4
3.410000E-8	1.044900E-4
3.415000E-8	-1.404619E-4
3.420000E-8	-1.233324E-4
3.425000E-8	1.524526E-4
3.430000E-8	6.680505E-4
3.435000E-8	1.409758E-3
3.440000E-8	2.351880E-3
3.445000E-8	3.449881E-3
3.450000E-8	4.681492E-3
3.455000E-8	5.997038E-3
3.460000E-8	7.334852E-3
3.465000E-8	8.669240E-3
3.470000E-8	9.962518E-3
3.475000E-8	1.114617E-2
3.480000E-8	1.217394E-2
3.485000E-8	1.302870E-2
3.490000E-8	1.366763E-2
3.495000E-8	1.405647E-2
3.500000E-8	1.420036E-2
3.505000E-8	1.408901E-2
3.510000E-8	1.373272E-2
3.515000E-8	1.315717E-2
3.520000E-8	1.237093E-2
3.525000E-8	1.139797E-2
3.530000E-8	1.029312E-2
3.535000E-8	9.094052E-3
3.540000E-8	7.831608E-3
3.545000E-8	6.545182E-3
3.550000E-8	5.284451E-3
3.555000E-8	4.083673E-3
3.560000E-8	2.977107E-3
3.565000E-8	1.995587E-3
3.570000E-8	1.168232E-3
3.575000E-8	5.344404E-4
3.580000E-8	1.216195E-4
3.585000E-8	-7.194390E-5
3.590000E-8	-5.138850E-5
3.595000E-8	1.849986E-4
3.600000E-8	6.509210E-4
3.605000E-8	1.339527E-3
3.610000E-8	2.206280E-3
3.615000E-8	3.199791E-3
3.620000E-8	4.313208E-3
3.625000E-8	5.507134E-3
3.630000E-8	6.740458E-3
3.635000E-8	7.978921E-3
3.640000E-8	9.177986E-3
3.645000E-8	1.026914E-2
3.650000E-8	1.122325E-2
3.655000E-8	1.203690E-2
3.660000E-8	1.267926E-2
3.665000E-8	1.311606E-2
3.670000E-8	1.333189E-2
3.675000E-8	1.332161E-2
3.680000E-8	1.308351E-2
3.685000E-8	1.261930E-2
3.690000E-8	1.194611E-2
3.695000E-8	1.108107E-2
3.700000E-8	1.003960E-2
3.705000E-8	8.873081E-3
3.710000E-8	7.629480E-3
3.715000E-8	6.344767E-3
3.720000E-8	5.061767E-3
3.725000E-8	3.828443E-3
3.730000E-8	2.694470E-3
3.735000E-8	1.697534E-3
3.740000E-8	8.701786E-4
3.745000E-8	2.381001E-4
3.750000E-8	-1.712950E-4
3.755000E-8	-3.443030E-4
3.760000E-8	-2.706461E-4
3.765000E-8	3.083310E-5
3.770000E-8	5.361534E-4
3.775000E-8	1.221333E-3
3.780000E-8	2.062392E-3
3.785000E-8	3.038773E-3
3.790000E-8	4.116219E-3
3.795000E-8	5.251905E-3
3.800000E-8	6.397868E-3
3.805000E-8	7.516425E-3
3.810000E-8	8.583593E-3
3.815000E-8	9.573678E-3
3.820000E-8	1.045927E-2
3.825000E-8	1.118728E-2
3.830000E-8	1.174056E-2
3.835000E-8	1.213111E-2
3.840000E-8	1.233838E-2
3.845000E-8	1.232296E-2
3.850000E-8	1.208315E-2
3.855000E-8	1.163264E-2
3.860000E-8	1.098857E-2
3.865000E-8	1.018349E-2
3.870000E-8	9.224236E-3
3.875000E-8	8.124522E-3
3.880000E-8	6.946012E-3
3.885000E-8	5.731531E-3
3.890000E-8	4.498207E-3
3.895000E-8	3.311132E-3
3.900000E-8	2.238826E-3
3.905000E-8	1.283000E-3
3.910000E-8	4.762001E-4
3.915000E-8	-1.318972E-4
3.920000E-8	-5.395793E-4
3.925000E-8	-7.417074E-4
3.930000E-8	-7.040225E-4
3.935000E-8	-4.419411E-4
3.940000E-8	5.138850E-6
3.945000E-8	6.337915E-4
3.950000E-8	1.432026E-3
3.955000E-8	2.365584E-3
3.960000E-8	3.407058E-3
3.965000E-8	4.517049E-3
3.970000E-8	5.649309E-3
3.975000E-8	6.774717E-3
3.980000E-8	7.862441E-3
3.985000E-8	8.850813E-3
3.990000E-8	9.714140E-3
3.995000E-8	1.045071E-2
4.000000E-8	1.102969E-2
4.005000E-8	1.141853E-2
4.010000E-8	1.160181E-2
4.015000E-8	1.158811E-2
4.020000E-8	1.138769E-2
4.025000E-8	1.099714E-2
4.030000E-8	1.041988E-2
4.035000E-8	9.667890E-3
4.040000E-8	8.772017E-3
4.045000E-8	7.756238E-3
4.050000E-8	6.653098E-3
4.055000E-8	5.520838E-3
4.060000E-8	4.409133E-3
4.065000E-8	3.321410E-3
4.070000E-8	2.286788E-3
4.075000E-8	1.370360E-3
4.080000E-8	6.046714E-4
4.085000E-8	0.000000E+0
4.090000E-8	-4.093951E-4
4.095000E-8	-6.080973E-4
4.100000E-8	-6.046714E-4
4.105000E-8	-3.802749E-4
4.110000E-8	6.166620E-5
4.115000E-8	6.937448E-4
4.120000E-8	1.503970E-3
4.125000E-8	2.452944E-3
4.130000E-8	3.487566E-3
4.135000E-8	4.583854E-3
4.140000E-8	5.714401E-3
4.145000E-8	6.815828E-3
4.150000E-8	7.836746E-3
4.155000E-8	8.763452E-3
4.160000E-8	9.566826E-3
4.165000E-8	1.020747E-2
4.170000E-8	1.066140E-2
4.175000E-8	1.093376E-2
4.180000E-8	1.102283E-2
4.185000E-8	1.091834E-2
4.190000E-8	1.063913E-2
4.195000E-8	1.021090E-2
4.200000E-8	9.633631E-3
4.205000E-8	8.919331E-3
4.210000E-8	8.112531E-3
4.215000E-8	7.232075E-3
4.220000E-8	6.274536E-3
4.225000E-8	5.262183E-3
4.230000E-8	4.237838E-3
4.235000E-8	3.228911E-3
4.240000E-8	2.266233E-3
4.245000E-8	1.380638E-3
4.250000E-8	6.029584E-4
4.255000E-8	-2.569425E-5
4.260000E-8	-4.624965E-4
4.265000E-8	-6.920318E-4
4.270000E-8	-7.211520E-4
4.275000E-8	-5.344404E-4
4.280000E-8	-1.267583E-4
4.285000E-8	4.590706E-4
4.290000E-8	1.202491E-3
4.295000E-8	2.088086E-3
4.300000E-8	3.067894E-3
4.305000E-8	4.102515E-3
4.310000E-8	5.155980E-3
4.315000E-8	6.173472E-3
4.320000E-8	7.124159E-3
4.325000E-8	8.006329E-3
4.330000E-8	8.777156E-3
4.335000E-8	9.388679E-3
4.340000E-8	9.835759E-3
4.345000E-8	1.012353E-2
4.350000E-8	1.022802E-2
4.355000E-8	1.013895E-2
4.360000E-8	9.878583E-3
4.365000E-8	9.452058E-3
4.370000E-8	8.845674E-3
4.375000E-8	8.073134E-3
4.380000E-8	7.185825E-3
4.385000E-8	6.233425E-3
4.390000E-8	5.231349E-3
4.395000E-8	4.212144E-3
4.400000E-8	3.242614E-3
4.405000E-8	2.362158E-3
4.410000E-8	1.565636E-3
4.415000E-8	8.753175E-4
4.420000E-8	3.374512E-4
4.425000E-8	-4.282375E-5
4.430000E-8	-2.774979E-4
4.435000E-8	-3.528677E-4
4.440000E-8	-2.689332E-4
4.445000E-8	-3.768490E-5
4.450000E-8	3.305994E-4
4.455000E-8	8.324937E-4
4.460000E-8	1.449156E-3
4.465000E-8	2.149752E-3
4.470000E-8	2.903450E-3
4.475000E-8	3.689694E-3
4.480000E-8	4.510197E-3
4.485000E-8	5.346117E-3
4.490000E-8	6.130648E-3
4.495000E-8	6.832958E-3
4.500000E-8	7.478740E-3
4.505000E-8	8.028597E-3
4.510000E-8	8.429427E-3
4.515000E-8	8.701786E-3
4.520000E-8	8.847387E-3
4.525000E-8	8.826832E-3
4.530000E-8	8.650398E-3
4.535000E-8	8.343780E-3
4.540000E-8	7.906977E-3
4.545000E-8	7.353695E-3
4.550000E-8	6.709625E-3
4.555000E-8	5.991899E-3
4.560000E-8	5.226211E-3
4.565000E-8	4.434828E-3
4.570000E-8	3.629741E-3
4.575000E-8	2.829793E-3
4.580000E-8	2.077808E-3
4.585000E-8	1.406332E-3
4.590000E-8	8.290678E-4
4.595000E-8	3.785620E-4
4.600000E-8	6.851800E-5
4.605000E-8	-1.113418E-4
4.610000E-8	-1.507396E-4
4.615000E-8	-8.564750E-6
4.620000E-8	2.963404E-4
4.625000E-8	7.194390E-4
4.630000E-8	1.260731E-3
4.635000E-8	1.930495E-3
4.640000E-8	2.672202E-3
4.645000E-8	3.460159E-3
4.650000E-8	4.287514E-3
4.655000E-8	5.128572E-3
4.660000E-8	5.930233E-3
4.665000E-8	6.677079E-3
4.670000E-8	7.348556E-3
4.675000E-8	7.920681E-3
4.680000E-8	8.384891E-3
4.685000E-8	8.712064E-3
4.690000E-8	8.873081E-3
4.695000E-8	8.885072E-3
4.700000E-8	8.754888E-3
4.705000E-8	8.448270E-3
4.710000E-8	7.975495E-3
4.715000E-8	7.374250E-3
4.720000E-8	6.659950E-3
4.725000E-8	5.851437E-3
4.730000E-8	4.988111E-3
4.735000E-8	4.095664E-3
4.740000E-8	3.201504E-3
4.745000E-8	2.353593E-3
4.750000E-8	1.584479E-3
4.755000E-8	8.975858E-4
4.760000E-8	3.237476E-4
4.765000E-8	-1.044900E-4
4.770000E-8	-3.956915E-4
4.775000E-8	-5.549958E-4
4.780000E-8	-5.430052E-4
4.785000E-8	-3.699972E-4
4.790000E-8	-8.050865E-5
4.795000E-8	3.408771E-4
4.800000E-8	8.855952E-4
4.805000E-8	1.515961E-3
4.810000E-8	2.226835E-3
4.815000E-8	3.009653E-3
4.820000E-8	3.811314E-3
4.825000E-8	4.590706E-3
4.830000E-8	5.327275E-3
4.835000E-8	6.010742E-3
4.840000E-8	6.627404E-3
4.845000E-8	7.151566E-3
4.850000E-8	7.547258E-3
4.855000E-8	7.823043E-3
4.860000E-8	7.982347E-3
4.865000E-8	8.009754E-3
4.870000E-8	7.901839E-3
4.875000E-8	7.656887E-3
4.880000E-8	7.281751E-3
4.885000E-8	6.791847E-3
4.890000E-8	6.204305E-3
4.895000E-8	5.513986E-3
4.900000E-8	4.739733E-3
4.905000E-8	3.920943E-3
4.910000E-8	3.078171E-3
4.915000E-8	2.216557E-3
4.920000E-8	1.394341E-3
4.925000E-8	6.646246E-4
4.930000E-8	3.939785E-5
4.935000E-8	-4.607836E-4
4.940000E-8	-8.050865E-4
4.945000E-8	-9.900851E-4
4.950000E-8	-1.010641E-3
4.955000E-8	-8.530491E-4
4.960000E-8	-5.190239E-4
4.965000E-8	-4.282375E-5
4.970000E-8	5.601347E-4
4.975000E-8	1.279574E-3
4.980000E-8	2.084660E-3
4.985000E-8	2.934283E-3
4.990000E-8	3.799323E-3
4.995000E-8	4.647233E-3
5.000000E-8	5.440329E-3
5.005000E-8	6.144352E-3
5.010000E-8	6.757588E-3
5.015000E-8	7.268047E-3
5.020000E-8	7.646609E-3
5.025000E-8	7.884709E-3
5.030000E-8	7.965218E-3
5.035000E-8	7.879570E-3
5.040000E-8	7.648322E-3
5.045000E-8	7.304019E-3
5.050000E-8	6.819254E-3
5.055000E-8	6.209444E-3
5.060000E-8	5.529403E-3
5.065000E-8	4.794547E-3
5.070000E-8	4.003164E-3
5.075000E-8	3.213494E-3
5.080000E-8	2.463222E-3
5.085000E-8	1.745496E-3
5.090000E-8	1.094575E-3
5.095000E-8	5.464311E-4
5.100000E-8	1.027770E-4
5.105000E-8	-2.261094E-4
5.110000E-8	-4.179598E-4
5.115000E-8	-4.744872E-4
5.120000E-8	-3.991174E-4
5.125000E-8	-1.849986E-4
5.130000E-8	1.524526E-4
5.135000E-8	5.824030E-4
5.140000E-8	1.103140E-3
5.145000E-8	1.697534E-3
5.150000E-8	2.343316E-3
5.155000E-8	3.040486E-3
5.160000E-8	3.766777E-3
5.165000E-8	4.467374E-3
5.170000E-8	5.121721E-3
5.175000E-8	5.740096E-3
5.180000E-8	6.286527E-3
5.185000E-8	6.707912E-3
5.190000E-8	7.005966E-3
5.195000E-8	7.190964E-3
5.200000E-8	7.242353E-3
5.205000E-8	7.144715E-3
5.210000E-8	6.913466E-3
5.215000E-8	6.564025E-3
5.220000E-8	6.106667E-3
5.225000E-8	5.548245E-3
5.230000E-8	4.911028E-3
5.235000E-8	4.237838E-3
5.240000E-8	3.556084E-3
5.245000E-8	2.865765E-3
5.250000E-8	2.187437E-3
5.255000E-8	1.555359E-3
5.260000E-8	9.798074E-4
5.265000E-8	4.607836E-4
5.270000E-8	1.712950E-5
5.275000E-8	-3.203217E-4
5.280000E-8	-5.481440E-4
5.285000E-8	-6.663376E-4
5.290000E-8	-6.611987E-4
5.295000E-8	-5.155980E-4
5.300000E-8	-2.415260E-4
5.305000E-8	1.490267E-4
5.310000E-8	6.663376E-4
5.315000E-8	1.277861E-3
5.320000E-8	1.949337E-3
5.325000E-8	2.670489E-3
5.330000E-8	3.420761E-3
5.335000E-8	4.147052E-3
5.340000E-8	4.832232E-3
5.345000E-8	5.445468E-3
5.350000E-8	5.954214E-3
5.355000E-8	6.346480E-3
5.360000E-8	6.627404E-3
5.365000E-8	6.784995E-3
5.370000E-8	6.822680E-3
5.375000E-8	6.745597E-3
5.380000E-8	6.557173E-3
5.385000E-8	6.257407E-3
5.390000E-8	5.860002E-3
5.395000E-8	5.387228E-3
5.400000E-8	4.861352E-3
5.405000E-8	4.284088E-3
5.410000E-8	3.670852E-3
5.415000E-8	3.045625E-3
5.420000E-8	2.422111E-3
5.425000E-8	1.819153E-3
5.430000E-8	1.250454E-3
5.435000E-8	7.280038E-4
5.440000E-8	2.757850E-4
5.445000E-8	-7.879570E-5
5.450000E-8	-3.305994E-4
5.455000E-8	-4.710613E-4
5.460000E-8	-4.744872E-4
5.465000E-8	-3.443030E-4
5.470000E-8	-9.935110E-5
5.475000E-8	2.620814E-4
5.480000E-8	7.228649E-4
5.485000E-8	1.247028E-3
5.490000E-8	1.817440E-3
5.495000E-8	2.437528E-3
5.500000E-8	3.078171E-3
5.505000E-8	3.703398E-3
5.510000E-8	4.289227E-3
5.515000E-8	4.816816E-3
5.520000E-8	5.262183E-3
5.525000E-8	5.632180E-3
5.530000E-8	5.907965E-3
5.535000E-8	6.056991E-3
5.540000E-8	6.087824E-3
5.545000E-8	6.021019E-3
5.550000E-8	5.832595E-3
5.555000E-8	5.532829E-3
5.560000E-8	5.169683E-3
5.565000E-8	4.748298E-3
5.570000E-8	4.272097E-3
5.575000E-8	3.759925E-3
5.580000E-8	3.232337E-3
5.585000E-8	2.704748E-3
5.590000E-8	2.187437E-3
5.595000E-8	1.690682E-3
5.600000E-8	1.235037E-3
5.605000E-8	8.205031E-4
5.610000E-8	4.487929E-4
5.615000E-8	1.593044E-4
5.620000E-8	-2.055540E-5
5.625000E-8	-1.130547E-4
5.630000E-8	-1.164806E-4
5.635000E-8	-3.425900E-6
5.640000E-8	2.141188E-4
5.645000E-8	5.275886E-4
5.650000E-8	9.335578E-4
5.655000E-8	1.414897E-3
5.660000E-8	1.957902E-3
5.665000E-8	2.555721E-3
5.670000E-8	3.162106E-3
5.675000E-8	3.753074E-3
5.680000E-8	4.318347E-3
5.685000E-8	4.823667E-3
5.690000E-8	5.227924E-3
5.695000E-8	5.522551E-3
5.700000E-8	5.714401E-3
5.705000E-8	5.803475E-3
5.710000E-8	5.789771E-3
5.715000E-8	5.680142E-3
5.720000E-8	5.476301E-3
5.725000E-8	5.169683E-3
5.730000E-8	4.782557E-3
5.735000E-8	4.361171E-3
5.740000E-8	3.915804E-3
5.745000E-8	3.420761E-3
5.750000E-8	2.905163E-3
5.755000E-8	2.398130E-3
5.760000E-8	1.892810E-3
5.765000E-8	1.392628E-3
5.770000E-8	9.386966E-4
5.775000E-8	5.412922E-4
5.780000E-8	1.918504E-4
5.785000E-8	-9.763815E-5
5.790000E-8	-3.066181E-4
5.795000E-8	-4.145339E-4
5.800000E-8	-4.111080E-4
5.805000E-8	-3.066181E-4
5.810000E-8	-1.199065E-4
5.815000E-8	1.644432E-4
5.820000E-8	5.515699E-4
5.825000E-8	1.005502E-3
5.830000E-8	1.498831E-3
5.835000E-8	2.046975E-3
5.840000E-8	2.632804E-3
5.845000E-8	3.192939E-3
5.850000E-8	3.713676E-3
5.855000E-8	4.212144E-3
5.860000E-8	4.648946E-3
5.865000E-8	5.010379E-3
5.870000E-8	5.305006E-3
5.875000E-8	5.501996E-3
5.880000E-8	5.577365E-3
5.885000E-8	5.572227E-3
5.890000E-8	5.484866E-3
5.895000E-8	5.287877E-3
5.900000E-8	4.984685E-3
5.905000E-8	4.609549E-3
5.910000E-8	4.183024E-3
5.915000E-8	3.698259E-3
5.920000E-8	3.148402E-3
5.925000E-8	2.571138E-3
5.930000E-8	2.011003E-3
5.935000E-8	1.467998E-3
5.940000E-8	9.575391E-4
5.945000E-8	5.310145E-4
5.950000E-8	2.004152E-4
5.955000E-8	-4.453670E-5
5.960000E-8	-1.832857E-4
5.965000E-8	-2.004152E-4
5.970000E-8	-1.181936E-4
5.975000E-8	6.509210E-5
5.980000E-8	3.648584E-4
5.985000E-8	7.382815E-4
5.990000E-8	1.154528E-3
5.995000E-8	1.622164E-3
6.000000E-8	2.129197E-3
6.005000E-8	2.639656E-3
6.010000E-8	3.144976E-3
6.015000E-8	3.631454E-3
6.020000E-8	4.073395E-3
6.025000E-8	4.474226E-3
6.030000E-8	4.811677E-3
6.035000E-8	5.056629E-3
6.040000E-8	5.226211E-3
6.045000E-8	5.322136E-3
6.050000E-8	5.315284E-3
6.055000E-8	5.205655E-3
6.060000E-8	5.013805E-3
6.065000E-8	4.744872E-3
6.070000E-8	4.410846E-3
6.075000E-8	4.044275E-3
6.080000E-8	3.657148E-3
6.085000E-8	3.256318E-3
6.090000E-8	2.855488E-3
6.095000E-8	2.475213E-3
6.100000E-8	2.118919E-3
6.105000E-8	1.783181E-3
6.110000E-8	1.473137E-3
6.115000E-8	1.195639E-3
6.120000E-8	9.352707E-4
6.125000E-8	7.005966E-4
6.130000E-8	4.950426E-4
6.135000E-8	3.305994E-4
6.140000E-8	2.089799E-4
6.145000E-8	1.593044E-4
6.150000E-8	1.935634E-4
6.155000E-8	3.134699E-4
6.160000E-8	5.155980E-4
6.165000E-8	8.067995E-4
6.170000E-8	1.171658E-3
6.175000E-8	1.584479E-3
6.180000E-8	2.038411E-3
6.185000E-8	2.519750E-3
6.190000E-8	2.983959E-3
6.195000E-8	3.410484E-3
6.200000E-8	3.792471E-3
6.205000E-8	4.112793E-3
6.210000E-8	4.349180E-3
6.215000E-8	4.491355E-3
6.220000E-8	4.541031E-3
6.225000E-8	4.482790E-3
6.230000E-8	4.311495E-3
6.235000E-8	4.051127E-3
6.240000E-8	3.727379E-3
6.245000E-8	3.360808E-3
6.250000E-8	2.970255E-3
6.255000E-8	2.569425E-3
6.260000E-8	2.161743E-3
6.265000E-8	1.757487E-3
6.270000E-8	1.377212E-3
6.275000E-8	1.034622E-3
6.280000E-8	7.228649E-4
6.285000E-8	4.453670E-4
6.290000E-8	2.226835E-4
6.295000E-8	4.967555E-5
6.300000E-8	-8.050865E-5
6.305000E-8	-1.627303E-4
6.310000E-8	-1.832857E-4
6.315000E-8	-1.404619E-4
6.320000E-8	-2.569425E-5
6.325000E-8	1.661562E-4
6.330000E-8	4.333764E-4
6.335000E-8	7.845311E-4
6.340000E-8	1.207630E-3
6.345000E-8	1.680404E-3
6.350000E-8	2.189150E-3
6.355000E-8	2.699609E-3
6.360000E-8	3.186087E-3
6.365000E-8	3.643445E-3
6.370000E-8	4.030571E-3
6.375000E-8	4.326912E-3
6.380000E-8	4.537605E-3
6.385000E-8	4.652372E-3
6.390000E-8	4.662650E-3
6.395000E-8	4.577003E-3
6.400000E-8	4.393717E-3
6.405000E-8	4.119645E-3
6.410000E-8	3.782194E-3
6.415000E-8	3.401919E-3
6.420000E-8	2.994237E-3
6.425000E-8	2.581416E-3
6.430000E-8	2.166882E-3
6.435000E-8	1.747209E-3
6.440000E-8	1.344666E-3
6.445000E-8	9.746686E-4
6.450000E-8	6.457822E-4
6.455000E-8	3.648584E-4
6.460000E-8	1.456008E-4
6.465000E-8	-1.541655E-5
6.470000E-8	-1.130547E-4
6.475000E-8	-1.301842E-4
6.480000E-8	-7.023095E-5
6.485000E-8	5.824030E-5
6.490000E-8	2.381001E-4
6.495000E-8	4.762001E-4
6.500000E-8	7.674016E-4
6.505000E-8	1.099714E-3
6.510000E-8	1.473137E-3
6.515000E-8	1.880819E-3
6.520000E-8	2.298779E-3
6.525000E-8	2.704748E-3
6.530000E-8	3.079884E-3
6.535000E-8	3.412197E-3
6.540000E-8	3.687981E-3
6.545000E-8	3.898674E-3
6.550000E-8	4.027146E-3
6.555000E-8	4.075108E-3
6.560000E-8	4.049414E-3
6.565000E-8	3.958628E-3
6.570000E-8	3.792471E-3
6.575000E-8	3.552658E-3
6.580000E-8	3.276873E-3
6.585000E-8	2.995950E-3
6.590000E-8	2.679054E-3
6.595000E-8	2.329612E-3
6.600000E-8	1.985309E-3
6.605000E-8	1.654710E-3
6.610000E-8	1.329249E-3
6.615000E-8	1.014066E-3
6.620000E-8	7.125872E-4
6.625000E-8	4.248116E-4
6.630000E-8	1.798598E-4
6.635000E-8	-1.199065E-5
6.640000E-8	-1.593044E-4
6.645000E-8	-2.500907E-4
6.650000E-8	-2.569425E-4
6.655000E-8	-1.867116E-4
6.660000E-8	-4.453670E-5
6.665000E-8	1.969893E-4
6.670000E-8	5.224498E-4
6.675000E-8	8.838822E-4
6.680000E-8	1.288138E-3
6.685000E-8	1.730080E-3
6.690000E-8	2.156604E-3
6.695000E-8	2.548870E-3
6.700000E-8	2.908589E-3
6.705000E-8	3.198078E-3
6.710000E-8	3.405345E-3
6.715000E-8	3.554371E-3
6.720000E-8	3.643445E-3
6.725000E-8	3.660574E-3
6.730000E-8	3.605760E-3
6.735000E-8	3.492705E-3
6.740000E-8	3.335114E-3
6.745000E-8	3.143263E-3
6.750000E-8	2.915441E-3
6.755000E-8	2.667063E-3
6.760000E-8	2.401556E-3
6.765000E-8	2.124058E-3
6.770000E-8	1.843134E-3
6.775000E-8	1.562210E-3
6.780000E-8	1.288138E-3
6.785000E-8	1.029483E-3
6.790000E-8	7.930959E-4
6.795000E-8	5.995325E-4
6.800000E-8	4.522188E-4
6.805000E-8	3.443030E-4
6.810000E-8	3.014792E-4
6.815000E-8	3.288864E-4
6.820000E-8	4.042562E-4
6.825000E-8	5.344404E-4
6.830000E-8	7.211520E-4
6.835000E-8	9.352707E-4
6.840000E-8	1.185361E-3
6.845000E-8	1.474850E-3
6.850000E-8	1.771190E-3
6.855000E-8	2.052114E-3
6.860000E-8	2.310770E-3
6.865000E-8	2.548870E-3
6.870000E-8	2.759563E-3
6.875000E-8	2.929145E-3
6.880000E-8	3.074745E-3
6.885000E-8	3.194652E-3
6.890000E-8	3.258031E-3
6.895000E-8	3.275160E-3
6.900000E-8	3.282012E-3
6.905000E-8	3.256318E-3
6.910000E-8	3.187800E-3
6.915000E-8	3.083310E-3
6.920000E-8	2.946274E-3
6.925000E-8	2.774979E-3
6.930000E-8	2.583129E-3
6.935000E-8	2.387852E-3
6.940000E-8	2.189150E-3
6.945000E-8	1.973318E-3
6.950000E-8	1.731793E-3
6.955000E-8	1.497118E-3
6.960000E-8	1.284713E-3
6.965000E-8	1.092862E-3
6.970000E-8	9.369837E-4
6.975000E-8	8.102254E-4
6.980000E-8	7.177261E-4
6.985000E-8	6.834671E-4
6.990000E-8	6.868930E-4
6.995000E-8	7.057354E-4
7.000000E-8	7.622628E-4
7.005000E-8	8.684657E-4
7.010000E-8	1.007215E-3
7.015000E-8	1.166519E-3
7.020000E-8	1.361795E-3
7.025000E-8	1.587905E-3
7.030000E-8	1.815727E-3
7.035000E-8	2.052114E-3
7.040000E-8	2.298779E-3
7.045000E-8	2.526601E-3
7.050000E-8	2.723591E-3
7.055000E-8	2.891460E-3
7.060000E-8	3.018218E-3
7.065000E-8	3.095301E-3
7.070000E-8	3.119282E-3
7.075000E-8	3.057616E-3
7.080000E-8	2.913728E-3
7.085000E-8	2.720165E-3
7.090000E-8	2.488916E-3
7.095000E-8	2.216557E-3
7.100000E-8	1.909939E-3
7.105000E-8	1.591331E-3
7.110000E-8	1.288138E-3
7.115000E-8	1.015779E-3
7.120000E-8	7.776793E-4
7.125000E-8	5.926807E-4
7.130000E-8	4.624965E-4
7.135000E-8	3.580066E-4
7.140000E-8	2.860627E-4
7.145000E-8	2.672202E-4
7.150000E-8	2.792109E-4
7.155000E-8	3.117569E-4
7.160000E-8	3.854138E-4
7.165000E-8	4.899037E-4
7.170000E-8	6.098102E-4
7.175000E-8	7.605498E-4
7.180000E-8	9.404096E-4
7.185000E-8	1.135686E-3
7.190000E-8	1.354943E-3
7.195000E-8	1.579340E-3
7.200000E-8	1.795172E-3
7.205000E-8	2.022994E-3
7.210000E-8	2.262807E-3
7.215000E-8	2.475213E-3
7.220000E-8	2.651647E-3
7.225000E-8	2.797247E-3
7.230000E-8	2.903450E-3
7.235000E-8	2.963404E-3
7.240000E-8	2.989098E-3
7.245000E-8	2.973681E-3
7.250000E-8	2.903450E-3
7.255000E-8	2.797247E-3
7.260000E-8	2.663637E-3
7.265000E-8	2.488916E-3
7.270000E-8	2.278224E-3
7.275000E-8	2.043549E-3
7.280000E-8	1.796885E-3
7.285000E-8	1.543368E-3
7.290000E-8	1.293277E-3
7.295000E-8	1.043187E-3
7.300000E-8	8.170772E-4
7.305000E-8	6.337915E-4
7.310000E-8	4.813390E-4
7.315000E-8	3.511548E-4
7.320000E-8	2.637943E-4
7.325000E-8	2.295353E-4
7.330000E-8	2.363871E-4
7.335000E-8	2.740720E-4
7.340000E-8	3.511548E-4
7.345000E-8	4.676354E-4
7.350000E-8	6.286527E-4
7.355000E-8	8.444844E-4
7.360000E-8	1.109992E-3
7.365000E-8	1.396054E-3
7.370000E-8	1.678691E-3
7.375000E-8	1.966467E-3
7.380000E-8	2.252529E-3
7.385000E-8	2.509472E-3
7.390000E-8	2.708174E-3
7.395000E-8	2.829793E-3
7.400000E-8	2.879469E-3
7.405000E-8	2.867478E-3
7.410000E-8	2.807525E-3
7.415000E-8	2.694470E-3
7.420000E-8	2.530027E-3
7.425000E-8	2.350167E-3
7.430000E-8	2.168595E-3
7.435000E-8	1.978457E-3
7.440000E-8	1.802023E-3
7.445000E-8	1.647858E-3
7.450000E-8	1.495405E-3
7.455000E-8	1.341240E-3
7.460000E-8	1.190500E-3
7.465000E-8	1.034622E-3
7.470000E-8	8.855952E-4
7.475000E-8	7.519851E-4
7.480000E-8	6.235138E-4
7.485000E-8	5.241627E-4
7.490000E-8	4.607836E-4
7.495000E-8	4.265246E-4
7.500000E-8	4.385152E-4
7.505000E-8	5.173109E-4
7.510000E-8	6.320786E-4
7.515000E-8	7.708275E-4
7.520000E-8	9.541132E-4
7.525000E-8	1.152815E-3
7.530000E-8	1.348092E-3
7.535000E-8	1.560497E-3
7.540000E-8	1.788320E-3
7.545000E-8	1.983596E-3
7.550000E-8	2.136049E-3
7.555000E-8	2.273085E-3
7.560000E-8	2.386139E-3
7.565000E-8	2.461509E-3
7.570000E-8	2.511185E-3
7.575000E-8	2.521462E-3
7.580000E-8	2.490629E-3
7.585000E-8	2.435815E-3
7.590000E-8	2.343316E-3
7.595000E-8	2.202854E-3
7.600000E-8	2.033272E-3
7.605000E-8	1.848273E-3
7.610000E-8	1.634154E-3
7.615000E-8	1.394341E-3
7.620000E-8	1.145964E-3
7.625000E-8	9.181412E-4
7.630000E-8	7.245779E-4
7.635000E-8	5.669865E-4
7.640000E-8	4.522188E-4
7.645000E-8	3.991174E-4
7.650000E-8	3.991174E-4
7.655000E-8	4.316634E-4
7.660000E-8	5.087462E-4
7.665000E-8	6.166620E-4
7.670000E-8	7.434203E-4
7.675000E-8	8.890211E-4
7.680000E-8	1.050038E-3
7.685000E-8	1.199065E-3
7.690000E-8	1.336101E-3
7.695000E-8	1.462859E-3
7.700000E-8	1.584479E-3
7.705000E-8	1.702672E-3
7.710000E-8	1.810588E-3
7.715000E-8	1.913365E-3
7.720000E-8	2.005865E-3
7.725000E-8	2.079521E-3
7.730000E-8	2.141188E-3
7.735000E-8	2.189150E-3
7.740000E-8	2.207993E-3
7.745000E-8	2.202854E-3
7.750000E-8	2.185724E-3
7.755000E-8	2.142901E-3
7.760000E-8	2.064105E-3
7.765000E-8	1.961328E-3
7.770000E-8	1.856838E-3
7.775000E-8	1.750635E-3
7.780000E-8	1.639293E-3
7.785000E-8	1.533090E-3
7.790000E-8	1.428600E-3
7.795000E-8	1.322397E-3
7.800000E-8	1.233324E-3
7.805000E-8	1.147677E-3
7.810000E-8	1.056890E-3
7.815000E-8	9.678168E-4
7.820000E-8	8.924470E-4
7.825000E-8	8.222160E-4
7.830000E-8	7.674016E-4
7.835000E-8	7.519851E-4
7.840000E-8	7.588369E-4
7.845000E-8	7.845311E-4
7.850000E-8	8.444844E-4
7.855000E-8	9.438355E-4
7.860000E-8	1.070594E-3
7.865000E-8	1.216195E-3
7.870000E-8	1.375499E-3
7.875000E-8	1.534803E-3
7.880000E-8	1.676978E-3
7.885000E-8	1.796885E-3
7.890000E-8	1.887671E-3
7.895000E-8	1.944198E-3
7.900000E-8	1.976744E-3
7.905000E-8	1.981883E-3
7.910000E-8	1.968180E-3
7.915000E-8	1.944198E-3
7.920000E-8	1.909939E-3
7.925000E-8	1.884245E-3
7.930000E-8	1.879106E-3
7.935000E-8	1.865403E-3
7.940000E-8	1.846560E-3
7.945000E-8	1.822579E-3
7.950000E-8	1.759200E-3
7.955000E-8	1.658136E-3
7.960000E-8	1.534803E-3
7.965000E-8	1.373786E-3
7.970000E-8	1.166519E-3
7.975000E-8	9.301319E-4
7.980000E-8	6.903189E-4
7.985000E-8	4.762001E-4
7.990000E-8	2.860627E-4
7.995000E-8	1.267583E-4
8.000000E-8	4.282375E-5
8.005000E-8	4.967555E-5
8.010000E-8	1.216195E-4
8.015000E-8	2.655073E-4
8.020000E-8	4.796260E-4
8.025000E-8	7.177261E-4
8.030000E-8	9.626779E-4
8.035000E-8	1.207630E-3
8.040000E-8	1.433739E-3
8.045000E-8	1.613599E-3
8.050000E-8	1.757487E-3
8.055000E-8	1.870541E-3
8.060000E-8	1.937347E-3
8.065000E-8	1.969893E-3
8.070000E-8	1.988735E-3
8.075000E-8	1.993874E-3
8.080000E-8	1.995587E-3
8.085000E-8	2.004152E-3
8.090000E-8	1.987022E-3
8.095000E-8	1.942485E-3
8.100000E-8	1.916791E-3
8.105000E-8	1.897949E-3
8.110000E-8	1.827718E-3
8.115000E-8	1.721515E-3
8.120000E-8	1.617025E-3
8.125000E-8	1.498831E-3
8.130000E-8	1.353231E-3
8.135000E-8	1.190500E-3
8.140000E-8	1.020918E-3
8.145000E-8	8.616139E-4
8.150000E-8	7.228649E-4
8.155000E-8	5.961066E-4
8.160000E-8	5.001814E-4
8.165000E-8	4.539318E-4
8.170000E-8	4.522188E-4
8.175000E-8	4.796260E-4
8.180000E-8	5.464311E-4
8.185000E-8	6.594858E-4
8.190000E-8	8.239290E-4
8.195000E-8	1.032909E-3
8.200000E-8	1.255592E-3
8.205000E-8	1.483415E-3
8.210000E-8	1.706098E-3
8.215000E-8	1.908226E-3
8.220000E-8	2.074383E-3
8.225000E-8	2.207993E-3
8.230000E-8	2.319334E-3
8.235000E-8	2.396417E-3
8.240000E-8	2.423824E-3
8.245000E-8	2.420398E-3
8.250000E-8	2.398130E-3
8.255000E-8	2.350167E-3
8.260000E-8	2.290214E-3
8.265000E-8	2.238826E-3
8.270000E-8	2.189150E-3
8.275000E-8	2.134336E-3
8.280000E-8	2.082947E-3
8.285000E-8	2.043549E-3
8.290000E-8	1.995587E-3
8.295000E-8	1.918504E-3
8.300000E-8	1.820866E-3
8.305000E-8	1.714663E-3
8.310000E-8	1.599895E-3
8.315000E-8	1.473137E-3
8.320000E-8	1.342953E-3
8.325000E-8	1.214482E-3
8.330000E-8	1.091149E-3
8.335000E-8	9.952240E-4
8.340000E-8	9.506873E-4
8.345000E-8	9.455484E-4
8.350000E-8	9.592520E-4
8.355000E-8	9.986499E-4
8.360000E-8	1.070594E-3
8.365000E-8	1.166519E-3
8.370000E-8	1.269296E-3
8.375000E-8	1.377212E-3
8.380000E-8	1.481702E-3
8.385000E-8	1.582766E-3
8.390000E-8	1.664987E-3
8.395000E-8	1.726654E-3
8.400000E-8	1.783181E-3
8.405000E-8	1.832857E-3
8.410000E-8	1.861977E-3
8.415000E-8	1.882532E-3
8.420000E-8	1.899662E-3
8.425000E-8	1.909939E-3
8.430000E-8	1.906513E-3
8.435000E-8	1.887671E-3
8.440000E-8	1.851699E-3
8.445000E-8	1.800311E-3
8.450000E-8	1.723228E-3
8.455000E-8	1.608460E-3
8.460000E-8	1.478276E-3
8.465000E-8	1.351518E-3
8.470000E-8	1.235037E-3
8.475000E-8	1.118556E-3
8.480000E-8	9.969369E-4
8.485000E-8	8.890211E-4
8.490000E-8	8.119383E-4
8.495000E-8	7.725405E-4
8.500000E-8	7.554110E-4
8.505000E-8	7.691146E-4
8.510000E-8	8.153642E-4
8.515000E-8	8.753175E-4
8.520000E-8	9.524002E-4
8.525000E-8	1.051751E-3
8.530000E-8	1.145964E-3
8.535000E-8	1.231611E-3
8.540000E-8	1.327536E-3
8.545000E-8	1.423461E-3
8.550000E-8	1.497118E-3
8.555000E-8	1.550220E-3
8.560000E-8	1.599895E-3
8.565000E-8	1.647858E-3
8.570000E-8	1.680404E-3
8.575000E-8	1.694108E-3
8.580000E-8	1.694108E-3
8.585000E-8	1.676978E-3
8.590000E-8	1.630728E-3
8.595000E-8	1.574201E-3
8.600000E-8	1.519387E-3
8.605000E-8	1.471424E-3
8.610000E-8	1.423461E-3
8.615000E-8	1.368647E-3
8.620000E-8	1.318972E-3
8.625000E-8	1.264157E-3
8.630000E-8	1.204204E-3
8.635000E-8	1.161380E-3
8.640000E-8	1.139112E-3
8.645000E-8	1.115130E-3
8.650000E-8	1.091149E-3
8.655000E-8	1.080871E-3
8.660000E-8	1.051751E-3
8.665000E-8	1.000363E-3
8.670000E-8	9.592520E-4
8.675000E-8	9.318448E-4
8.680000E-8	8.907340E-4
8.685000E-8	8.461973E-4
8.690000E-8	8.307808E-4
8.695000E-8	8.307808E-4
8.700000E-8	8.290678E-4
8.705000E-8	8.410585E-4
8.710000E-8	8.770304E-4
8.715000E-8	9.267060E-4
8.720000E-8	9.900851E-4
8.725000E-8	1.072307E-3
8.730000E-8	1.176797E-3
8.735000E-8	1.293277E-3
8.740000E-8	1.399480E-3
8.745000E-8	1.490267E-3
8.750000E-8	1.579340E-3
8.755000E-8	1.661562E-3
8.760000E-8	1.721515E-3
8.765000E-8	1.771190E-3
8.770000E-8	1.805449E-3
8.775000E-8	1.791746E-3
8.780000E-8	1.735218E-3
8.785000E-8	1.661562E-3
8.790000E-8	1.574201E-3
8.795000E-8	1.461146E-3
8.800000E-8	1.336101E-3
8.805000E-8	1.214482E-3
8.810000E-8	1.094575E-3
8.815000E-8	9.935110E-4
8.820000E-8	9.198542E-4
8.825000E-8	8.701786E-4
8.830000E-8	8.530491E-4
8.835000E-8	8.599009E-4
8.840000E-8	8.616139E-4
8.845000E-8	8.633268E-4
8.850000E-8	8.684657E-4
8.855000E-8	8.650398E-4
8.860000E-8	8.530491E-4
8.865000E-8	8.290678E-4
8.870000E-8	7.793923E-4
8.875000E-8	7.194390E-4
8.880000E-8	6.611987E-4
8.885000E-8	6.115232E-4
8.890000E-8	5.824030E-4
8.895000E-8	5.858289E-4
8.900000E-8	6.149491E-4
8.905000E-8	6.714764E-4
8.910000E-8	7.519851E-4
8.915000E-8	8.616139E-4
8.920000E-8	9.952240E-4
8.925000E-8	1.116843E-3
8.930000E-8	1.217907E-3
8.935000E-8	1.301842E-3
8.940000E-8	1.366934E-3
8.945000E-8	1.408045E-3
8.950000E-8	1.437165E-3
8.955000E-8	1.432026E-3
8.960000E-8	1.385777E-3
8.965000E-8	1.330962E-3
8.970000E-8	1.284713E-3
8.975000E-8	1.235037E-3
8.980000E-8	1.187074E-3
8.985000E-8	1.139112E-3
8.990000E-8	1.099714E-3
8.995000E-8	1.077446E-3
9.000000E-8	1.063742E-3
9.005000E-8	1.046612E-3
9.010000E-8	1.044900E-3
9.015000E-8	1.053464E-3
9.020000E-8	1.048325E-3
9.025000E-8	1.044900E-3
9.030000E-8	1.060316E-3
9.035000E-8	1.094575E-3
9.040000E-8	1.139112E-3
9.045000E-8	1.188787E-3
9.050000E-8	1.241889E-3
9.055000E-8	1.303555E-3
9.060000E-8	1.380638E-3
9.065000E-8	1.466285E-3
9.070000E-8	1.541655E-3
9.075000E-8	1.599895E-3
9.080000E-8	1.647858E-3
9.085000E-8	1.692395E-3
9.090000E-8	1.718089E-3
9.095000E-8	1.724941E-3
9.100000E-8	1.712950E-3
9.105000E-8	1.695821E-3
9.110000E-8	1.659849E-3
9.115000E-8	1.594756E-3
9.120000E-8	1.538229E-3
9.125000E-8	1.490267E-3
9.130000E-8	1.426887E-3
9.135000E-8	1.358369E-3
9.140000E-8	1.325823E-3
9.145000E-8	1.315546E-3
9.150000E-8	1.306981E-3
9.155000E-8	1.294990E-3
9.160000E-8	1.277861E-3
9.165000E-8	1.253879E-3
9.170000E-8	1.224759E-3
9.175000E-8	1.181936E-3
9.180000E-8	1.116843E-3
9.185000E-8	1.041474E-3
9.190000E-8	9.712427E-4
9.195000E-8	8.907340E-4
9.200000E-8	8.067995E-4
9.205000E-8	7.365685E-4
9.210000E-8	6.954577E-4
9.215000E-8	6.800412E-4
9.220000E-8	6.937448E-4
9.225000E-8	7.331426E-4
9.230000E-8	7.862441E-4
9.235000E-8	8.581880E-4
9.240000E-8	9.455484E-4
9.245000E-8	1.031196E-3
9.250000E-8	1.096288E-3
9.255000E-8	1.142538E-3
9.260000E-8	1.168232E-3
9.265000E-8	1.175084E-3
9.270000E-8	1.173371E-3
9.275000E-8	1.157954E-3
9.280000E-8	1.127121E-3
9.285000E-8	1.104853E-3
9.290000E-8	1.087723E-3
9.295000E-8	1.063742E-3
9.300000E-8	1.056890E-3
9.305000E-8	1.074020E-3
9.310000E-8	1.089436E-3
9.315000E-8	1.108279E-3
9.320000E-8	1.109992E-3
9.325000E-8	1.074020E-3
9.330000E-8	1.014066E-3
9.335000E-8	9.472614E-4
9.340000E-8	8.684657E-4
9.345000E-8	7.999477E-4
9.350000E-8	7.451333E-4
9.355000E-8	6.920318E-4
9.360000E-8	6.731894E-4
9.365000E-8	7.108743E-4
9.370000E-8	7.725405E-4
9.375000E-8	8.256419E-4
9.380000E-8	8.890211E-4
9.385000E-8	9.695297E-4
9.390000E-8	1.048325E-3
9.395000E-8	1.118556E-3
9.400000E-8	1.166519E-3
9.405000E-8	1.200778E-3
9.410000E-8	1.240176E-3
9.415000E-8	1.259018E-3
9.420000E-8	1.255592E-3
9.425000E-8	1.259018E-3
9.430000E-8	1.279574E-3
9.435000E-8	1.301842E-3
9.440000E-8	1.325823E-3
9.445000E-8	1.375499E-3
9.450000E-8	1.425174E-3
9.455000E-8	1.467998E-3
9.460000E-8	1.510822E-3
9.465000E-8	1.512535E-3
9.470000E-8	1.459433E-3
9.475000E-8	1.380638E-3
9.480000E-8	1.283000E-3
9.485000E-8	1.152815E-3
9.490000E-8	1.007215E-3
9.495000E-8	8.599009E-4
9.500000E-8	7.228649E-4
9.505000E-8	6.132361E-4
9.510000E-8	5.327275E-4
9.515000E-8	4.779131E-4
9.520000E-8	4.676354E-4
9.525000E-8	5.070332E-4
9.530000E-8	5.738383E-4
9.535000E-8	6.714764E-4
9.540000E-8	7.896700E-4
9.545000E-8	8.924470E-4
9.550000E-8	9.763815E-4
9.555000E-8	1.053464E-3
9.560000E-8	1.118556E-3
9.565000E-8	1.151102E-3
9.570000E-8	1.161380E-3
9.575000E-8	1.163093E-3
9.580000E-8	1.154528E-3
9.585000E-8	1.137399E-3
9.590000E-8	1.127121E-3
9.595000E-8	1.118556E-3
9.600000E-8	1.121982E-3
9.605000E-8	1.133973E-3
9.610000E-8	1.135686E-3
9.615000E-8	1.127121E-3
9.620000E-8	1.123695E-3
9.625000E-8	1.111705E-3
9.630000E-8	1.072307E-3
9.635000E-8	1.010641E-3
9.640000E-8	9.506873E-4
9.645000E-8	8.975858E-4
9.650000E-8	8.324937E-4
9.655000E-8	7.691146E-4
9.660000E-8	7.399944E-4
9.665000E-8	7.468462E-4
9.670000E-8	7.725405E-4
9.675000E-8	8.136513E-4
9.680000E-8	8.616139E-4
9.685000E-8	9.112894E-4
9.690000E-8	9.558261E-4
9.695000E-8	9.780945E-4
9.700000E-8	9.798074E-4
9.705000E-8	9.712427E-4
9.710000E-8	9.489743E-4
9.715000E-8	9.181412E-4
9.720000E-8	8.941599E-4
9.725000E-8	8.736045E-4
9.730000E-8	8.530491E-4
9.735000E-8	8.479103E-4
9.740000E-8	8.564750E-4
9.745000E-8	8.821693E-4
9.750000E-8	9.267060E-4
9.755000E-8	9.780945E-4
9.760000E-8	1.036335E-3
9.765000E-8	1.103140E-3
9.770000E-8	1.154528E-3
9.775000E-8	1.188787E-3
9.780000E-8	1.212769E-3
9.785000E-8	1.214482E-3
9.790000E-8	1.211056E-3
9.795000E-8	1.205917E-3
9.800000E-8	1.176797E-3
9.805000E-8	1.128834E-3
9.810000E-8	1.075733E-3
9.815000E-8	1.010641E-3
9.820000E-8	9.404096E-4
9.825000E-8	8.804563E-4
9.830000E-8	8.187901E-4
9.835000E-8	7.588369E-4
9.840000E-8	7.228649E-4
9.845000E-8	7.143002E-4
9.850000E-8	7.074484E-4
9.855000E-8	7.160131E-4
9.860000E-8	7.571239E-4
9.865000E-8	7.999477E-4
9.870000E-8	8.256419E-4
9.875000E-8	8.564750E-4
9.880000E-8	8.924470E-4
9.885000E-8	9.112894E-4
9.890000E-8	9.010117E-4
9.895000E-8	8.701786E-4
9.900000E-8	8.461973E-4
9.905000E-8	8.376326E-4
9.910000E-8	8.222160E-4
9.915000E-8	8.102254E-4
9.920000E-8	8.239290E-4
9.925000E-8	8.461973E-4
9.930000E-8	8.804563E-4
9.935000E-8	9.643909E-4
9.940000E-8	1.077446E-3
9.945000E-8	1.169945E-3
9.950000E-8	1.252166E-3
9.955000E-8	1.329249E-3
9.960000E-8	1.384064E-3
9.965000E-8	1.414897E-3
9.970000E-8	1.416610E-3
9.975000E-8	1.370360E-3
9.980000E-8	1.289851E-3
9.985000E-8	1.211056E-3
9.990000E-8	1.113418E-3
9.995000E-8	9.832333E-4
1.000000E-7	8.753175E-4
1.000500E-7	7.913829E-4
1.001000E-7	7.023095E-4
1.001500E-7	6.337915E-4
1.002000E-7	5.995325E-4
1.002500E-7	5.841160E-4
1.003000E-7	5.875419E-4
1.003500E-7	6.046714E-4
1.004000E-7	6.269397E-4
1.004500E-7	6.440692E-4
1.005000E-7	6.526340E-4
1.005500E-7	6.492081E-4
1.006000E-7	6.406433E-4
1.006500E-7	6.303656E-4
1.007000E-7	6.029584E-4
1.007500E-7	5.549958E-4
1.008000E-7	5.070332E-4
1.008500E-7	4.864778E-4
1.009000E-7	4.899037E-4
1.009500E-7	5.087462E-4
1.010000E-7	5.378663E-4
1.010500E-7	5.858289E-4
1.011000E-7	6.663376E-4
1.011500E-7	7.571239E-4
1.012000E-7	8.256419E-4
1.012500E-7	8.941599E-4
1.013000E-7	9.592520E-4
1.013500E-7	9.832333E-4
1.014000E-7	9.832333E-4
1.014500E-7	9.592520E-4
1.015000E-7	8.890211E-4
1.015500E-7	8.153642E-4
1.016000E-7	7.434203E-4
1.016500E-7	6.423563E-4
1.017000E-7	5.378663E-4
1.017500E-7	4.607836E-4
1.018000E-7	4.076821E-4
1.018500E-7	3.819879E-4
1.019000E-7	3.768490E-4
1.019500E-7	3.819879E-4
1.020000E-7	4.076821E-4
1.020500E-7	4.590706E-4
1.021000E-7	5.327275E-4
1.021500E-7	6.063843E-4
1.022000E-7	6.680505E-4
1.022500E-7	7.177261E-4
1.023000E-7	7.674016E-4
1.023500E-7	8.067995E-4
1.024000E-7	8.376326E-4
1.024500E-7	8.513362E-4
1.025000E-7	8.410585E-4
1.025500E-7	8.239290E-4
1.026000E-7	8.050865E-4
1.026500E-7	7.793923E-4
1.027000E-7	7.571239E-4
1.027500E-7	7.417074E-4
1.028000E-7	7.245779E-4
1.028500E-7	6.954577E-4
1.029000E-7	6.526340E-4
1.029500E-7	6.080973E-4
1.030000E-7	5.755512E-4
1.030500E-7	5.395793E-4
1.031000E-7	4.950426E-4
1.031500E-7	4.676354E-4
1.032000E-7	4.573577E-4
1.032500E-7	4.453670E-4
1.033000E-7	4.470800E-4
1.033500E-7	4.659224E-4
1.034000E-7	4.950426E-4
1.034500E-7	5.361534E-4
1.035000E-7	5.721253E-4
1.035500E-7	5.995325E-4
1.036000E-7	6.320786E-4
1.036500E-7	6.577728E-4
1.037000E-7	6.440692E-4
1.037500E-7	6.046714E-4
1.038000E-7	5.704124E-4
1.038500E-7	5.275886E-4
1.039000E-7	4.727742E-4
1.039500E-7	4.248116E-4
1.040000E-7	3.837008E-4
1.040500E-7	3.580066E-4
1.041000E-7	3.717102E-4
1.041500E-7	4.111080E-4
1.042000E-7	4.624965E-4
1.042500E-7	5.378663E-4
1.043000E-7	6.337915E-4
1.043500E-7	7.177261E-4
1.044000E-7	7.811052E-4
1.044500E-7	8.427714E-4
1.045000E-7	8.941599E-4
1.045500E-7	9.198542E-4
1.046000E-7	9.215671E-4
1.046500E-7	9.010117E-4
1.047000E-7	8.736045E-4
1.047500E-7	8.393455E-4
1.048000E-7	8.016606E-4
1.048500E-7	7.639757E-4
1.049000E-7	7.108743E-4
1.049500E-7	6.560599E-4
1.050000E-7	6.149491E-4
1.050500E-7	5.806901E-4
1.051000E-7	5.378663E-4
1.051500E-7	4.830519E-4
1.052000E-7	4.453670E-4
1.052500E-7	4.385152E-4
1.053000E-7	4.522188E-4
1.053500E-7	4.813390E-4
1.054000E-7	5.241627E-4
1.054500E-7	5.704124E-4
1.055000E-7	6.012455E-4
1.055500E-7	6.183750E-4
1.056000E-7	6.303656E-4
1.056500E-7	6.080973E-4
1.057000E-7	5.430052E-4
1.057500E-7	4.642095E-4
1.058000E-7	3.785620E-4
1.058500E-7	2.689332E-4
1.059000E-7	1.558785E-4
1.059500E-7	7.365685E-5
1.060000E-7	2.569425E-5
1.060500E-7	6.851800E-6
1.061000E-7	2.055540E-5
1.061500E-7	6.509210E-5
1.062000E-7	1.387490E-4
1.062500E-7	2.363871E-4
1.063000E-7	3.477289E-4
1.063500E-7	4.436541E-4
1.064000E-7	5.121721E-4
1.064500E-7	5.549958E-4
1.065000E-7	5.618476E-4
1.065500E-7	5.412922E-4
1.066000E-7	5.053203E-4
1.066500E-7	4.642095E-4
1.067000E-7	4.059692E-4
1.067500E-7	3.425900E-4
1.068000E-7	2.929145E-4
1.068500E-7	2.672202E-4
1.069000E-7	2.689332E-4
1.069500E-7	2.980533E-4
1.070000E-7	3.357382E-4
1.070500E-7	3.665713E-4
1.071000E-7	3.871267E-4
1.071500E-7	4.042562E-4
1.072000E-7	4.230987E-4
1.072500E-7	4.350893E-4
1.073000E-7	4.179598E-4
1.073500E-7	3.665713E-4
1.074000E-7	3.237476E-4
1.074500E-7	2.946274E-4
1.075000E-7	2.466648E-4
1.075500E-7	1.935634E-4
1.076000E-7	1.627303E-4
1.076500E-7	1.421749E-4
1.077000E-7	1.318972E-4
1.077500E-7	1.541655E-4
1.078000E-7	1.832857E-4
1.078500E-7	1.935634E-4
1.079000E-7	2.021281E-4
1.079500E-7	2.106929E-4
1.080000E-7	1.987022E-4
1.080500E-7	1.935634E-4
1.081000E-7	1.918504E-4
1.081500E-7	1.712950E-4
1.082000E-7	1.438878E-4
1.082500E-7	1.284713E-4
1.083000E-7	1.096288E-4
1.083500E-7	1.130547E-4
1.084000E-7	1.575914E-4
1.084500E-7	2.175447E-4
1.085000E-7	2.672202E-4
1.085500E-7	3.271735E-4
1.086000E-7	4.042562E-4
1.086500E-7	4.796260E-4
1.087000E-7	5.412922E-4
1.087500E-7	5.806901E-4
1.088000E-7	5.961066E-4
1.088500E-7	6.012455E-4
1.089000E-7	5.909678E-4
1.089500E-7	5.618476E-4
1.090000E-7	5.430052E-4
1.090500E-7	5.430052E-4
1.091000E-7	5.447181E-4
1.091500E-7	5.549958E-4
1.092000E-7	6.012455E-4
1.092500E-7	6.749023E-4
1.093000E-7	7.588369E-4
1.093500E-7	8.410585E-4
1.094000E-7	9.215671E-4
1.094500E-7	9.935110E-4
1.095000E-7	1.034622E-3
1.095500E-7	1.053464E-3
1.096000E-7	1.067168E-3
1.096500E-7	1.046612E-3
1.097000E-7	9.849463E-4
1.097500E-7	9.027247E-4
1.098000E-7	8.136513E-4
1.098500E-7	7.262908E-4
1.099000E-7	6.543469E-4
1.099500E-7	5.926807E-4
1.100000E-7	5.447181E-4
1.100500E-7	5.498570E-4
1.101000E-7	5.858289E-4
1.101500E-7	6.355045E-4
1.102000E-7	7.228649E-4
1.102500E-7	8.461973E-4
1.103000E-7	9.541132E-4
1.103500E-7	1.036335E-3
1.104000E-7	1.115130E-3
1.104500E-7	1.181936E-3
1.105000E-7	1.202491E-3
1.105500E-7	1.175084E-3
1.106000E-7	1.111705E-3
1.106500E-7	1.022631E-3
1.107000E-7	9.249930E-4
1.107500E-7	8.153642E-4
1.108000E-7	6.886059E-4
1.108500E-7	5.772642E-4
1.109000E-7	4.967555E-4
1.109500E-7	4.265246E-4
1.110000E-7	3.819879E-4
1.110500E-7	3.854138E-4
1.111000E-7	4.179598E-4
1.111500E-7	4.727742E-4
1.112000E-7	5.584217E-4
1.112500E-7	6.492081E-4
1.113000E-7	7.245779E-4
1.113500E-7	7.948088E-4
1.114000E-7	8.479103E-4
1.114500E-7	8.667527E-4
1.115000E-7	8.513362E-4
1.115500E-7	8.205031E-4
1.116000E-7	7.708275E-4
1.116500E-7	6.988836E-4
1.117000E-7	6.303656E-4
1.117500E-7	5.686994E-4
1.118000E-7	5.087462E-4
1.118500E-7	4.762001E-4
1.119000E-7	4.847649E-4
1.119500E-7	5.138850E-4
1.120000E-7	5.686994E-4
1.120500E-7	6.560599E-4
1.121000E-7	7.502721E-4
1.121500E-7	8.307808E-4
1.122000E-7	9.044376E-4
1.122500E-7	9.558261E-4
1.123000E-7	9.798074E-4
1.123500E-7	9.746686E-4
1.124000E-7	9.386966E-4
1.124500E-7	8.736045E-4
1.125000E-7	7.913829E-4
1.125500E-7	7.177261E-4
1.126000E-7	6.492081E-4
1.126500E-7	5.686994E-4
1.127000E-7	4.881908E-4
1.127500E-7	4.282375E-4
1.128000E-7	3.905526E-4
1.128500E-7	3.768490E-4
1.129000E-7	3.871267E-4
1.129500E-7	4.042562E-4
1.130000E-7	4.333764E-4
1.130500E-7	4.881908E-4
1.131000E-7	5.549958E-4
1.131500E-7	6.200879E-4
1.132000E-7	6.851800E-4
1.132500E-7	7.451333E-4
1.133000E-7	7.776793E-4
1.133500E-7	7.742534E-4
1.134000E-7	7.468462E-4
1.134500E-7	7.143002E-4
1.135000E-7	6.714764E-4
1.135500E-7	6.080973E-4
1.136000E-7	5.412922E-4
1.136500E-7	4.762001E-4
1.137000E-7	4.145339E-4
1.137500E-7	3.528677E-4
1.138000E-7	3.083310E-4
1.138500E-7	3.014792E-4
1.139000E-7	3.134699E-4
1.139500E-7	3.186087E-4
1.140000E-7	3.340253E-4
1.140500E-7	3.682843E-4
1.141000E-7	3.956915E-4
1.141500E-7	4.008303E-4
1.142000E-7	4.059692E-4
1.142500E-7	4.128210E-4
1.143000E-7	3.956915E-4
1.143500E-7	3.854138E-4
1.144000E-7	4.008303E-4
1.144500E-7	4.213857E-4
1.145000E-7	4.453670E-4
1.145500E-7	4.796260E-4
1.146000E-7	5.173109E-4
1.146500E-7	5.584217E-4
1.147000E-7	6.012455E-4
1.147500E-7	6.080973E-4
1.148000E-7	6.012455E-4
1.148500E-7	6.098102E-4
1.149000E-7	5.978196E-4
1.149500E-7	5.601347E-4
1.150000E-7	5.481440E-4
1.150500E-7	5.618476E-4
1.151000E-7	5.686994E-4
1.151500E-7	5.772642E-4
1.152000E-7	6.046714E-4
1.152500E-7	6.372174E-4
1.153000E-7	6.629117E-4
1.153500E-7	6.903189E-4
1.154000E-7	7.211520E-4
1.154500E-7	7.417074E-4
1.155000E-7	7.417074E-4
1.155500E-7	7.297167E-4
1.156000E-7	7.177261E-4
1.156500E-7	6.971707E-4
1.157000E-7	6.663376E-4
1.157500E-7	6.526340E-4
1.158000E-7	6.611987E-4
1.158500E-7	6.680505E-4
1.159000E-7	6.800412E-4
1.159500E-7	7.108743E-4
1.160000E-7	7.451333E-4
1.160500E-7	7.725405E-4
1.161000E-7	8.033736E-4
1.161500E-7	8.342067E-4
1.162000E-7	8.359196E-4
1.162500E-7	8.170772E-4
1.163000E-7	8.067995E-4
1.163500E-7	7.999477E-4
1.164000E-7	7.708275E-4
1.164500E-7	7.417074E-4
1.165000E-7	7.314297E-4
1.165500E-7	7.160131E-4
1.166000E-7	7.023095E-4
1.166500E-7	7.074484E-4
1.167000E-7	7.143002E-4
1.167500E-7	7.228649E-4
1.168000E-7	7.382815E-4
1.168500E-7	7.485592E-4
1.169000E-7	7.571239E-4
1.169500E-7	7.708275E-4
1.170000E-7	7.828182E-4
1.170500E-7	7.982347E-4
1.171000E-7	8.324937E-4
1.171500E-7	8.718916E-4
1.172000E-7	8.941599E-4
1.172500E-7	9.010117E-4
1.173000E-7	9.198542E-4
1.173500E-7	9.678168E-4
1.174000E-7	1.020918E-3
1.174500E-7	1.044900E-3
1.175000E-7	1.056890E-3
1.175500E-7	1.067168E-3
1.176000E-7	1.072307E-3
1.176500E-7	1.065455E-3
1.177000E-7	1.038048E-3
1.177500E-7	1.005502E-3
1.178000E-7	9.900851E-4
1.178500E-7	9.661038E-4
1.179000E-7	9.215671E-4
1.179500E-7	8.787434E-4
1.180000E-7	8.444844E-4
1.180500E-7	8.067995E-4
1.181000E-7	7.793923E-4
1.181500E-7	7.485592E-4
1.182000E-7	7.160131E-4
1.182500E-7	7.074484E-4
1.183000E-7	7.194390E-4
1.183500E-7	7.417074E-4
1.184000E-7	7.862441E-4
1.184500E-7	8.547621E-4
1.185000E-7	9.198542E-4
1.185500E-7	9.746686E-4
1.186000E-7	1.032909E-3
1.186500E-7	1.077446E-3
1.187000E-7	1.079159E-3
1.187500E-7	1.055177E-3
1.188000E-7	1.020918E-3
1.188500E-7	9.695297E-4
1.189000E-7	8.838822E-4
1.189500E-7	7.708275E-4
1.190000E-7	6.526340E-4
1.190500E-7	5.549958E-4
1.191000E-7	4.967555E-4
1.191500E-7	4.436541E-4
1.192000E-7	3.974044E-4
1.192500E-7	3.922656E-4
1.193000E-7	4.145339E-4
1.193500E-7	4.487929E-4
1.194000E-7	4.984685E-4
1.194500E-7	5.635606E-4
1.195000E-7	6.355045E-4
1.195500E-7	7.074484E-4
1.196000E-7	7.656887E-4
1.196500E-7	8.102254E-4
1.197000E-7	8.650398E-4
1.197500E-7	8.941599E-4
1.198000E-7	8.992988E-4
1.198500E-7	9.284189E-4
1.199000E-7	9.626779E-4
1.199500E-7	9.626779E-4
1.200000E-7	9.558261E-4
1.200500E-7	9.575391E-4
1.201000E-7	9.524002E-4
1.201500E-7	9.558261E-4
1.202000E-7	9.746686E-4
1.202500E-7	9.815204E-4
1.203000E-7	9.695297E-4
1.203500E-7	9.661038E-4
1.204000E-7	9.678168E-4
1.204500E-7	9.524002E-4
1.205000E-7	9.181412E-4
1.205500E-7	8.821693E-4
1.206000E-7	8.530491E-4
1.206500E-7	8.187901E-4
1.207000E-7	7.793923E-4
1.207500E-7	7.639757E-4
1.208000E-7	7.639757E-4
1.208500E-7	7.656887E-4
1.209000E-7	7.930959E-4
1.209500E-7	8.547621E-4
1.210000E-7	9.232801E-4
1.210500E-7	9.900851E-4
1.211000E-7	1.053464E-3
1.211500E-7	1.098001E-3
1.212000E-7	1.120269E-3
1.212500E-7	1.128834E-3
1.213000E-7	1.115130E-3
1.213500E-7	1.053464E-3
1.214000E-7	9.695297E-4
1.214500E-7	8.770304E-4
1.215000E-7	7.656887E-4
1.215500E-7	6.680505E-4
1.216000E-7	6.012455E-4
1.216500E-7	5.464311E-4
1.217000E-7	5.018944E-4
1.217500E-7	4.864778E-4
1.218000E-7	5.104591E-4
1.218500E-7	5.567088E-4
1.219000E-7	6.252268E-4
1.219500E-7	6.988836E-4
1.220000E-7	7.554110E-4
1.220500E-7	8.016606E-4
1.221000E-7	8.427714E-4
1.221500E-7	8.701786E-4
1.222000E-7	8.821693E-4
1.222500E-7	8.787434E-4
1.223000E-7	8.667527E-4
1.223500E-7	8.444844E-4
1.224000E-7	8.222160E-4
1.224500E-7	8.205031E-4
1.225000E-7	8.307808E-4
1.225500E-7	8.376326E-4
1.226000E-7	8.616139E-4
1.226500E-7	8.941599E-4
1.227000E-7	9.249930E-4
1.227500E-7	9.763815E-4
1.228000E-7	1.058603E-3
1.228500E-7	1.130547E-3
1.229000E-7	1.175084E-3
1.229500E-7	1.214482E-3
1.230000E-7	1.252166E-3
1.230500E-7	1.267583E-3
1.231000E-7	1.252166E-3
1.231500E-7	1.212769E-3
1.232000E-7	1.133973E-3
1.232500E-7	1.026057E-3
1.233000E-7	9.198542E-4
1.233500E-7	8.153642E-4
1.234000E-7	7.023095E-4
1.234500E-7	6.012455E-4
1.235000E-7	5.241627E-4
1.235500E-7	4.830519E-4
1.236000E-7	4.864778E-4
1.236500E-7	5.224498E-4
1.237000E-7	5.858289E-4
1.237500E-7	6.851800E-4
1.238000E-7	8.256419E-4
1.238500E-7	9.866592E-4
1.239000E-7	1.140825E-3
1.239500E-7	1.272722E-3
1.240000E-7	1.385777E-3
1.240500E-7	1.473137E-3
1.241000E-7	1.514248E-3
1.241500E-7	1.515961E-3
1.242000E-7	1.488554E-3
1.242500E-7	1.420036E-3
1.243000E-7	1.310407E-3
1.243500E-7	1.181936E-3
1.244000E-7	1.055177E-3
1.244500E-7	9.301319E-4
1.245000E-7	8.153642E-4
1.245500E-7	7.297167E-4
1.246000E-7	6.766153E-4
1.246500E-7	6.389304E-4
1.247000E-7	6.235138E-4
1.247500E-7	6.406433E-4
1.248000E-7	6.766153E-4
1.248500E-7	7.143002E-4
1.249000E-7	7.554110E-4
1.249500E-7	7.999477E-4
1.250000E-7	8.342067E-4
1.250500E-7	8.444844E-4
1.251000E-7	8.222160E-4
1.251500E-7	7.776793E-4
1.252000E-7	7.280038E-4
1.252500E-7	6.731894E-4
1.253000E-7	6.132361E-4
1.253500E-7	5.618476E-4
1.254000E-7	5.327275E-4
1.254500E-7	5.173109E-4
1.255000E-7	5.104591E-4
1.255500E-7	5.104591E-4
1.256000E-7	5.190239E-4
1.256500E-7	5.395793E-4
1.257000E-7	5.652735E-4
1.257500E-7	5.841160E-4
1.258000E-7	5.875419E-4
1.258500E-7	5.926807E-4
1.259000E-7	6.115232E-4
1.259500E-7	6.303656E-4
1.260000E-7	6.320786E-4
1.260500E-7	6.457822E-4
1.261000E-7	6.886059E-4
1.261500E-7	7.365685E-4
1.262000E-7	7.845311E-4
1.262500E-7	8.376326E-4
1.263000E-7	8.907340E-4
1.263500E-7	9.335578E-4
1.264000E-7	9.678168E-4
1.264500E-7	9.729556E-4
1.265000E-7	9.421225E-4
1.265500E-7	9.010117E-4
1.266000E-7	8.633268E-4
1.266500E-7	8.119383E-4
1.267000E-7	7.605498E-4
1.267500E-7	7.194390E-4
1.268000E-7	6.920318E-4
1.268500E-7	6.680505E-4
1.269000E-7	6.577728E-4
1.269500E-7	6.783282E-4
1.270000E-7	7.314297E-4
1.270500E-7	7.982347E-4
1.271000E-7	8.599009E-4
1.271500E-7	9.284189E-4
1.272000E-7	9.935110E-4
1.272500E-7	1.043187E-3
1.273000E-7	1.086010E-3
1.273500E-7	1.118556E-3
1.274000E-7	1.118556E-3
1.274500E-7	1.115130E-3
1.275000E-7	1.109992E-3
1.275500E-7	1.075733E-3
1.276000E-7	1.038048E-3
1.276500E-7	1.024344E-3
1.277000E-7	1.002076E-3
1.277500E-7	9.472614E-4
1.278000E-7	8.992988E-4
1.278500E-7	8.736045E-4
1.279000E-7	8.410585E-4
1.279500E-7	8.085124E-4
1.280000E-7	7.862441E-4
1.280500E-7	7.622628E-4
1.281000E-7	7.194390E-4
1.281500E-7	6.800412E-4
1.282000E-7	6.577728E-4
1.282500E-7	6.406433E-4
1.283000E-7	6.132361E-4
1.283500E-7	6.149491E-4
1.284000E-7	6.457822E-4
1.284500E-7	6.886059E-4
1.285000E-7	7.468462E-4
1.285500E-7	8.102254E-4
1.286000E-7	8.701786E-4
1.286500E-7	9.318448E-4
1.287000E-7	9.866592E-4
1.287500E-7	1.007215E-3
1.288000E-7	1.000363E-3
1.288500E-7	9.815204E-4
1.289000E-7	9.404096E-4
1.289500E-7	8.701786E-4
1.290000E-7	7.965218E-4
1.290500E-7	7.177261E-4
1.291000E-7	6.286527E-4
1.291500E-7	5.515699E-4
1.292000E-7	5.053203E-4
1.292500E-7	4.762001E-4
1.293000E-7	4.813390E-4
1.293500E-7	5.327275E-4
1.294000E-7	6.029584E-4
1.294500E-7	6.817541E-4
1.295000E-7	7.828182E-4
1.295500E-7	8.804563E-4
1.296000E-7	9.695297E-4
1.296500E-7	1.063742E-3
1.297000E-7	1.152815E-3
1.297500E-7	1.217907E-3
1.298000E-7	1.264157E-3
1.298500E-7	1.286425E-3
1.299000E-7	1.286425E-3
1.299500E-7	1.257305E-3
1.300000E-7	1.199065E-3
1.300500E-7	1.113418E-3
1.301000E-7	1.012353E-3
1.301500E-7	8.890211E-4
1.302000E-7	7.605498E-4
1.302500E-7	6.372174E-4
1.303000E-7	5.190239E-4
1.303500E-7	4.248116E-4
1.304000E-7	3.665713E-4
1.304500E-7	3.271735E-4
1.305000E-7	3.117569E-4
1.305500E-7	3.460159E-4
1.306000E-7	4.145339E-4
1.306500E-7	4.916167E-4
1.307000E-7	5.704124E-4
1.307500E-7	6.560599E-4
1.308000E-7	7.434203E-4
1.308500E-7	8.170772E-4
1.309000E-7	8.701786E-4
1.309500E-7	8.941599E-4
1.310000E-7	8.890211E-4
1.310500E-7	8.736045E-4
1.311000E-7	8.479103E-4
1.311500E-7	8.119383E-4
1.312000E-7	7.896700E-4
1.312500E-7	7.708275E-4
1.313000E-7	7.417074E-4
1.313500E-7	7.297167E-4
1.314000E-7	7.382815E-4
1.314500E-7	7.434203E-4
1.315000E-7	7.588369E-4
1.315500E-7	7.828182E-4
1.316000E-7	7.879570E-4
1.316500E-7	7.913829E-4
1.317000E-7	8.153642E-4
1.317500E-7	8.342067E-4
1.318000E-7	8.324937E-4
1.318500E-7	8.444844E-4
1.319000E-7	8.616139E-4
1.319500E-7	8.718916E-4
1.320000E-7	8.736045E-4
1.320500E-7	8.821693E-4
1.321000E-7	8.873081E-4
1.321500E-7	8.873081E-4
1.322000E-7	8.890211E-4
1.322500E-7	8.804563E-4
1.323000E-7	8.547621E-4
1.323500E-7	8.205031E-4
1.324000E-7	7.811052E-4
1.324500E-7	7.262908E-4
1.325000E-7	6.611987E-4
1.325500E-7	6.046714E-4
1.326000E-7	5.618476E-4
1.326500E-7	5.293016E-4
1.327000E-7	4.967555E-4
1.327500E-7	4.659224E-4
1.328000E-7	4.470800E-4
1.328500E-7	4.265246E-4
1.329000E-7	4.076821E-4
1.329500E-7	4.128210E-4
1.330000E-7	4.282375E-4
1.330500E-7	4.419411E-4
1.331000E-7	4.727742E-4
1.331500E-7	5.087462E-4
1.332000E-7	5.395793E-4
1.332500E-7	5.892548E-4
1.333000E-7	6.663376E-4
1.333500E-7	7.451333E-4
1.334000E-7	8.153642E-4
1.334500E-7	8.821693E-4
1.335000E-7	9.455484E-4
1.335500E-7	1.000363E-3
1.336000E-7	1.032909E-3
1.336500E-7	1.036335E-3
1.337000E-7	1.005502E-3
1.337500E-7	9.558261E-4
1.338000E-7	9.010117E-4
1.338500E-7	8.324937E-4
1.339000E-7	7.588369E-4
1.339500E-7	7.057354E-4
1.340000E-7	6.663376E-4
1.340500E-7	6.320786E-4
1.341000E-7	6.337915E-4
1.341500E-7	6.594858E-4
1.342000E-7	6.903189E-4
1.342500E-7	7.348556E-4
1.343000E-7	7.896700E-4
1.343500E-7	8.256419E-4
1.344000E-7	8.599009E-4
1.344500E-7	8.992988E-4
1.345000E-7	9.147153E-4
1.345500E-7	9.112894E-4
1.346000E-7	9.147153E-4
1.346500E-7	9.232801E-4
1.347000E-7	9.147153E-4
1.347500E-7	8.890211E-4
1.348000E-7	8.564750E-4
1.348500E-7	8.170772E-4
1.349000E-7	7.776793E-4
1.349500E-7	7.571239E-4
1.350000E-7	7.365685E-4
1.350500E-7	7.108743E-4
1.351000E-7	7.023095E-4
1.351500E-7	7.228649E-4
1.352000E-7	7.536980E-4
1.352500E-7	7.930959E-4
1.353000E-7	8.359196E-4
1.353500E-7	8.701786E-4
1.354000E-7	9.078635E-4
1.354500E-7	9.352707E-4
1.355000E-7	9.404096E-4
1.355500E-7	9.198542E-4
1.356000E-7	8.873081E-4
1.356500E-7	8.479103E-4
1.357000E-7	8.033736E-4
1.357500E-7	7.502721E-4
1.358000E-7	6.920318E-4
1.358500E-7	6.543469E-4
1.359000E-7	6.423563E-4
1.359500E-7	6.372174E-4
1.360000E-7	6.406433E-4
1.360500E-7	6.731894E-4
1.361000E-7	6.971707E-4
1.361500E-7	6.971707E-4
1.362000E-7	7.091613E-4
1.362500E-7	7.228649E-4
1.363000E-7	7.125872E-4
1.363500E-7	7.040225E-4
1.364000E-7	6.937448E-4
1.364500E-7	6.731894E-4
1.365000E-7	6.594858E-4
1.365500E-7	6.697635E-4
1.366000E-7	7.005966E-4
1.366500E-7	7.468462E-4
1.367000E-7	7.913829E-4
1.367500E-7	8.239290E-4
1.368000E-7	8.479103E-4
1.368500E-7	8.581880E-4
1.369000E-7	8.633268E-4
1.369500E-7	8.633268E-4
1.370000E-7	8.496232E-4
1.370500E-7	8.239290E-4
1.371000E-7	7.965218E-4
1.371500E-7	7.656887E-4
1.372000E-7	7.417074E-4
1.372500E-7	7.519851E-4
1.373000E-7	7.828182E-4
1.373500E-7	8.050865E-4
1.374000E-7	8.444844E-4
1.374500E-7	9.010117E-4
1.375000E-7	9.404096E-4
1.375500E-7	9.712427E-4
1.376000E-7	1.012353E-3
1.376500E-7	1.036335E-3
1.377000E-7	1.032909E-3
1.377500E-7	1.027770E-3
1.378000E-7	1.027770E-3
1.378500E-7	9.917981E-4
1.379000E-7	9.404096E-4
1.379500E-7	8.941599E-4
1.380000E-7	8.410585E-4
1.380500E-7	7.811052E-4
1.381000E-7	7.091613E-4
1.381500E-7	6.252268E-4
1.382000E-7	5.549958E-4
1.382500E-7	5.104591E-4
1.383000E-7	4.744872E-4
1.383500E-7	4.556447E-4
1.384000E-7	4.659224E-4
1.384500E-7	4.847649E-4
1.385000E-7	5.036073E-4
1.385500E-7	5.275886E-4
1.386000E-7	5.772642E-4
1.386500E-7	6.492081E-4
1.387000E-7	7.005966E-4
1.387500E-7	7.143002E-4
1.388000E-7	7.211520E-4
1.388500E-7	7.348556E-4
1.389000E-7	7.348556E-4
1.389500E-7	7.331426E-4
1.390000E-7	7.588369E-4
1.390500E-7	7.845311E-4
1.391000E-7	7.811052E-4
1.391500E-7	7.913829E-4
1.392000E-7	8.273549E-4
1.392500E-7	8.564750E-4
1.393000E-7	8.855952E-4
1.393500E-7	9.198542E-4
1.394000E-7	9.267060E-4
1.394500E-7	8.924470E-4
1.395000E-7	8.427714E-4
1.395500E-7	7.776793E-4
1.396000E-7	6.937448E-4
1.396500E-7	6.046714E-4
1.397000E-7	5.053203E-4
1.397500E-7	4.145339E-4
1.398000E-7	3.511548E-4
1.398500E-7	3.100440E-4
1.399000E-7	2.894886E-4
1.399500E-7	3.066181E-4
1.400000E-7	3.494418E-4
1.400500E-7	3.991174E-4
1.401000E-7	4.624965E-4
1.401500E-7	5.258757E-4
1.402000E-7	5.721253E-4
1.402500E-7	6.046714E-4
1.403000E-7	6.320786E-4
1.403500E-7	6.423563E-4
1.404000E-7	6.372174E-4
1.404500E-7	6.406433E-4
1.405000E-7	6.286527E-4
1.405500E-7	6.012455E-4
1.406000E-7	5.858289E-4
1.406500E-7	5.652735E-4
1.407000E-7	5.173109E-4
1.407500E-7	4.864778E-4
1.408000E-7	4.830519E-4
1.408500E-7	4.813390E-4
1.409000E-7	4.899037E-4
1.409500E-7	5.258757E-4
1.410000E-7	5.704124E-4
1.410500E-7	6.183750E-4
1.411000E-7	6.954577E-4
1.411500E-7	7.845311E-4
1.412000E-7	8.564750E-4
1.412500E-7	9.095765E-4
1.413000E-7	9.438355E-4
1.413500E-7	9.472614E-4
1.414000E-7	9.284189E-4
1.414500E-7	8.975858E-4
1.415000E-7	8.410585E-4
1.415500E-7	7.776793E-4
1.416000E-7	7.280038E-4
1.416500E-7	6.886059E-4
1.417000E-7	6.509210E-4
1.417500E-7	6.440692E-4
1.418000E-7	6.783282E-4
1.418500E-7	7.160131E-4
1.419000E-7	7.451333E-4
1.419500E-7	7.793923E-4
1.420000E-7	7.999477E-4
1.420500E-7	7.930959E-4
1.421000E-7	7.639757E-4
1.421500E-7	7.125872E-4
1.422000E-7	6.389304E-4
1.422500E-7	5.635606E-4
1.423000E-7	5.104591E-4
1.423500E-7	4.676354E-4
1.424000E-7	4.316634E-4
1.424500E-7	4.179598E-4
1.425000E-7	4.282375E-4
1.425500E-7	4.487929E-4
1.426000E-7	4.916167E-4
1.426500E-7	5.481440E-4
1.427000E-7	6.063843E-4
1.427500E-7	6.526340E-4
1.428000E-7	6.851800E-4
1.428500E-7	6.937448E-4
1.429000E-7	6.868930E-4
1.429500E-7	6.749023E-4
1.430000E-7	6.543469E-4
1.430500E-7	6.389304E-4
1.431000E-7	6.337915E-4
1.431500E-7	6.235138E-4
1.432000E-7	6.183750E-4
1.432500E-7	6.218009E-4
1.433000E-7	6.012455E-4
1.433500E-7	5.652735E-4
1.434000E-7	5.549958E-4
1.434500E-7	5.635606E-4
1.435000E-7	5.618476E-4
1.435500E-7	5.395793E-4
1.436000E-7	5.241627E-4
1.436500E-7	5.258757E-4
1.437000E-7	5.241627E-4
1.437500E-7	4.967555E-4
1.438000E-7	4.642095E-4
1.438500E-7	4.402282E-4
1.439000E-7	4.145339E-4
1.439500E-7	3.939785E-4
1.440000E-7	3.939785E-4
1.440500E-7	4.025433E-4
1.441000E-7	4.162469E-4
1.441500E-7	4.436541E-4
1.442000E-7	4.899037E-4
1.442500E-7	5.481440E-4
1.443000E-7	6.200879E-4
1.443500E-7	7.005966E-4
1.444000E-7	7.896700E-4
1.444500E-7	8.701786E-4
1.445000E-7	9.112894E-4
1.445500E-7	9.198542E-4
1.446000E-7	9.181412E-4
1.446500E-7	8.907340E-4
1.447000E-7	8.273549E-4
1.447500E-7	7.451333E-4
1.448000E-7	6.680505E-4
1.448500E-7	5.686994E-4
1.449000E-7	4.522188E-4
1.449500E-7	3.665713E-4
1.450000E-7	3.186087E-4
1.450500E-7	2.826368E-4
1.451000E-7	2.706461E-4
1.451500E-7	2.980533E-4
1.452000E-7	3.443030E-4
1.452500E-7	4.008303E-4
1.453000E-7	4.624965E-4
1.453500E-7	5.173109E-4
1.454000E-7	5.635606E-4
1.454500E-7	5.789771E-4
1.455000E-7	5.532829E-4
1.455500E-7	5.001814E-4
1.456000E-7	4.436541E-4
1.456500E-7	3.717102E-4
1.457000E-7	2.637943E-4
1.457500E-7	1.558785E-4
1.458000E-7	9.763815E-5
1.458500E-7	8.050865E-5
1.459000E-7	1.010641E-4
1.459500E-7	1.644432E-4
1.460000E-7	2.569425E-4
1.460500E-7	3.665713E-4
1.461000E-7	4.881908E-4
1.461500E-7	5.961066E-4
1.462000E-7	6.663376E-4
1.462500E-7	7.023095E-4
1.463000E-7	7.074484E-4
1.463500E-7	6.714764E-4
1.464000E-7	6.046714E-4
1.464500E-7	5.258757E-4
1.465000E-7	4.402282E-4
1.465500E-7	3.511548E-4
1.466000E-7	2.706461E-4
1.466500E-7	2.089799E-4
1.467000E-7	1.695821E-4
1.467500E-7	1.627303E-4
1.468000E-7	1.884245E-4
1.468500E-7	2.449519E-4
1.469000E-7	3.031922E-4
1.469500E-7	3.545807E-4
1.470000E-7	4.042562E-4
1.470500E-7	4.453670E-4
1.471000E-7	4.642095E-4
1.471500E-7	4.556447E-4
1.472000E-7	4.299505E-4
1.472500E-7	3.922656E-4
1.473000E-7	3.614325E-4
1.473500E-7	3.408771E-4
1.474000E-7	3.271735E-4
1.474500E-7	3.186087E-4
1.475000E-7	3.186087E-4
1.475500E-7	3.066181E-4
1.476000E-7	2.912015E-4
1.476500E-7	2.894886E-4
1.477000E-7	2.843497E-4
1.477500E-7	2.774979E-4
1.478000E-7	2.860627E-4
1.478500E-7	2.946274E-4
1.479000E-7	2.980533E-4
1.479500E-7	3.237476E-4
1.480000E-7	3.768490E-4
1.480500E-7	4.333764E-4
1.481000E-7	4.899037E-4
1.481500E-7	5.498570E-4
1.482000E-7	6.063843E-4
1.482500E-7	6.611987E-4
1.483000E-7	7.074484E-4
1.483500E-7	7.211520E-4
1.484000E-7	7.074484E-4
1.484500E-7	6.731894E-4
1.485000E-7	6.183750E-4
1.485500E-7	5.412922E-4
1.486000E-7	4.522188E-4
1.486500E-7	3.545807E-4
1.487000E-7	2.432389E-4
1.487500E-7	1.353231E-4
1.488000E-7	4.967555E-5
1.488500E-7	-2.912015E-5
1.489000E-7	-1.010641E-4
1.489500E-7	-1.507396E-4
1.490000E-7	-1.832857E-4
1.490500E-7	-1.952763E-4
1.491000E-7	-1.867116E-4
1.491500E-7	-1.610173E-4
1.492000E-7	-1.130547E-4
1.492500E-7	-4.111080E-5
1.493000E-7	4.624965E-5
1.493500E-7	1.541655E-4
1.494000E-7	2.826368E-4
1.494500E-7	4.042562E-4
1.495000E-7	5.001814E-4
1.495500E-7	5.755512E-4
1.496000E-7	6.337915E-4
1.496500E-7	6.629117E-4
1.497000E-7	6.594858E-4
1.497500E-7	6.492081E-4
1.498000E-7	6.457822E-4
1.498500E-7	6.320786E-4
1.499000E-7	6.115232E-4
1.499500E-7	6.012455E-4
1.500000E-7	5.978196E-4
1.500500E-7	6.012455E-4
1.501000E-7	6.218009E-4
1.501500E-7	6.355045E-4
1.502000E-7	6.372174E-4
1.502500E-7	6.286527E-4
1.503000E-7	5.875419E-4
1.503500E-7	5.293016E-4
1.504000E-7	4.813390E-4
1.504500E-7	4.128210E-4
1.505000E-7	3.083310E-4
1.505500E-7	2.192576E-4
1.506000E-7	1.558785E-4
1.506500E-7	1.044900E-4
1.507000E-7	8.736045E-5
1.507500E-7	1.079159E-4
1.508000E-7	1.490267E-4
1.508500E-7	2.106929E-4
1.509000E-7	2.929145E-4
1.509500E-7	3.871267E-4
1.510000E-7	4.864778E-4
1.510500E-7	5.635606E-4
1.511000E-7	5.995325E-4
1.511500E-7	6.029584E-4
1.512000E-7	5.841160E-4
1.512500E-7	5.412922E-4
1.513000E-7	4.762001E-4
1.513500E-7	4.076821E-4
1.514000E-7	3.305994E-4
1.514500E-7	2.535166E-4
1.515000E-7	2.089799E-4
1.515500E-7	2.055540E-4
1.516000E-7	2.295353E-4
1.516500E-7	2.860627E-4
1.517000E-7	3.768490E-4
1.517500E-7	4.813390E-4
1.518000E-7	5.738383E-4
1.518500E-7	6.474951E-4
1.519000E-7	7.040225E-4
1.519500E-7	7.485592E-4
1.520000E-7	7.725405E-4
1.520500E-7	7.674016E-4
1.521000E-7	7.399944E-4
1.521500E-7	6.988836E-4
1.522000E-7	6.440692E-4
1.522500E-7	5.824030E-4
1.523000E-7	5.190239E-4
1.523500E-7	4.573577E-4
1.524000E-7	4.213857E-4
1.524500E-7	4.059692E-4
1.525000E-7	4.076821E-4
1.525500E-7	4.333764E-4
1.526000E-7	4.830519E-4
1.526500E-7	5.412922E-4
1.527000E-7	6.046714E-4
1.527500E-7	6.680505E-4
1.528000E-7	7.040225E-4
1.528500E-7	7.211520E-4
1.529000E-7	7.125872E-4
1.529500E-7	6.543469E-4
1.530000E-7	5.464311E-4
1.530500E-7	4.145339E-4
1.531000E-7	2.757850E-4
1.531500E-7	1.267583E-4
1.532000E-7	-1.370360E-5
1.532500E-7	-1.113418E-4
1.533000E-7	-1.575914E-4
1.533500E-7	-1.541655E-4
1.534000E-7	-9.249930E-5
1.534500E-7	2.226835E-5
1.535000E-7	1.627303E-4
1.535500E-7	3.151828E-4
1.536000E-7	4.659224E-4
1.536500E-7	5.909678E-4
1.537000E-7	6.903189E-4
1.537500E-7	7.502721E-4
1.538000E-7	7.554110E-4
1.538500E-7	7.194390E-4
1.539000E-7	6.440692E-4
1.539500E-7	5.207368E-4
1.540000E-7	3.888397E-4
1.540500E-7	2.792109E-4
1.541000E-7	1.764339E-4
1.541500E-7	8.907340E-5
1.542000E-7	4.282375E-5
1.542500E-7	1.370360E-5
1.543000E-7	-1.712950E-5
1.543500E-7	-3.254605E-5
1.544000E-7	-2.740720E-5
1.544500E-7	-3.083310E-5
1.545000E-7	-3.254605E-5
1.545500E-7	-3.083310E-5
1.546000E-7	-3.425900E-5
1.546500E-7	-4.624965E-5
1.547000E-7	-5.824030E-5
1.547500E-7	-7.023095E-5
1.548000E-7	-8.393455E-5
1.548500E-7	-8.564750E-5
1.549000E-7	-8.222160E-5
1.549500E-7	-8.050865E-5
1.550000E-7	-7.708275E-5
1.550500E-7	-6.680505E-5
1.551000E-7	-5.310145E-5
1.551500E-7	-5.138850E-5
1.552000E-7	-6.166620E-5
1.552500E-7	-6.509210E-5
1.553000E-7	-5.652735E-5
1.553500E-7	-5.138850E-5
1.554000E-7	-2.569425E-5
1.554500E-7	3.597195E-5
1.555000E-7	1.164806E-4
1.555500E-7	2.089799E-4
1.556000E-7	3.151828E-4
1.556500E-7	4.230987E-4
1.557000E-7	5.258757E-4
1.557500E-7	6.252268E-4
1.558000E-7	7.108743E-4
1.558500E-7	7.793923E-4
1.559000E-7	8.016606E-4
1.559500E-7	7.485592E-4
1.560000E-7	6.423563E-4
1.560500E-7	5.121721E-4
1.561000E-7	3.477289E-4
1.561500E-7	1.490267E-4
1.562000E-7	-4.453670E-5
1.562500E-7	-2.261094E-4
1.563000E-7	-3.905526E-4
1.563500E-7	-5.036073E-4
1.564000E-7	-5.618476E-4
1.564500E-7	-5.669865E-4
1.565000E-7	-5.207368E-4
1.565500E-7	-4.299505E-4
1.566000E-7	-3.049051E-4
1.566500E-7	-1.575914E-4
1.567000E-7	-8.564750E-6
1.567500E-7	1.318972E-4
1.568000E-7	2.637943E-4
1.568500E-7	3.597195E-4
1.569000E-7	4.042562E-4
1.569500E-7	4.162469E-4
1.570000E-7	3.956915E-4
1.570500E-7	3.545807E-4
1.571000E-7	3.066181E-4
1.571500E-7	2.398130E-4
1.572000E-7	1.644432E-4
1.572500E-7	1.044900E-4
1.573000E-7	6.680505E-5
1.573500E-7	5.481440E-5
1.574000E-7	6.337915E-5
1.574500E-7	8.564750E-5
1.575000E-7	1.267583E-4
1.575500E-7	1.781468E-4
1.576000E-7	2.398130E-4
1.576500E-7	3.083310E-4
1.577000E-7	3.580066E-4
1.577500E-7	3.802749E-4
1.578000E-7	4.111080E-4
1.578500E-7	4.573577E-4
1.579000E-7	4.847649E-4
1.579500E-7	5.087462E-4
1.580000E-7	5.498570E-4
1.580500E-7	5.909678E-4
1.581000E-7	6.320786E-4
1.581500E-7	6.817541E-4
1.582000E-7	7.297167E-4
1.582500E-7	7.554110E-4
1.583000E-7	7.536980E-4
1.583500E-7	7.468462E-4
1.584000E-7	7.262908E-4
1.584500E-7	6.731894E-4
1.585000E-7	6.063843E-4
1.585500E-7	5.344404E-4
1.586000E-7	4.470800E-4
1.586500E-7	3.597195E-4
1.587000E-7	2.946274E-4
1.587500E-7	2.483778E-4
1.588000E-7	2.398130E-4
1.588500E-7	2.723591E-4
1.589000E-7	3.151828E-4
1.589500E-7	3.648584E-4
1.590000E-7	4.419411E-4
1.590500E-7	5.258757E-4
1.591000E-7	5.824030E-4
1.591500E-7	6.235138E-4
1.592000E-7	6.560599E-4
1.592500E-7	6.749023E-4
1.593000E-7	6.851800E-4
1.593500E-7	6.886059E-4
1.594000E-7	6.783282E-4
1.594500E-7	6.646246E-4
1.595000E-7	6.526340E-4
1.595500E-7	6.406433E-4
1.596000E-7	6.372174E-4
1.596500E-7	6.355045E-4
1.597000E-7	6.286527E-4
1.597500E-7	6.063843E-4
1.598000E-7	5.772642E-4
1.598500E-7	5.395793E-4
1.599000E-7	4.830519E-4
1.599500E-7	4.179598E-4
1.600000E-7	3.460159E-4
1.600500E-7	2.757850E-4
1.601000E-7	2.175447E-4
1.601500E-7	1.712950E-4
1.602000E-7	1.370360E-4
1.602500E-7	1.301842E-4
1.603000E-7	1.473137E-4
1.603500E-7	1.678691E-4
1.604000E-7	1.935634E-4
1.604500E-7	2.141188E-4
1.605000E-7	2.192576E-4
1.605500E-7	2.295353E-4
1.606000E-7	2.483778E-4
1.606500E-7	2.518037E-4
1.607000E-7	2.226835E-4
1.607500E-7	1.918504E-4
1.608000E-7	1.884245E-4
1.608500E-7	2.072670E-4
1.609000E-7	2.329612E-4
1.609500E-7	2.706461E-4
1.610000E-7	3.288864E-4
1.610500E-7	3.905526E-4
1.611000E-7	4.402282E-4
1.611500E-7	4.864778E-4
1.612000E-7	5.241627E-4
1.612500E-7	5.412922E-4
1.613000E-7	5.327275E-4
1.613500E-7	5.036073E-4
1.614000E-7	4.607836E-4
1.614500E-7	4.059692E-4
1.615000E-7	3.391641E-4
1.615500E-7	2.689332E-4
1.616000E-7	1.935634E-4
1.616500E-7	1.318972E-4
1.617000E-7	9.763815E-5
1.617500E-7	8.050865E-5
1.618000E-7	8.393455E-5
1.618500E-7	1.113418E-4
1.619000E-7	1.490267E-4
1.619500E-7	1.832857E-4
1.620000E-7	2.243965E-4
1.620500E-7	2.655073E-4
1.621000E-7	2.929145E-4
1.621500E-7	3.117569E-4
1.622000E-7	3.288864E-4
1.622500E-7	3.408771E-4
1.623000E-7	3.494418E-4
1.623500E-7	3.648584E-4
1.624000E-7	3.888397E-4
1.624500E-7	4.008303E-4
1.625000E-7	3.939785E-4
1.625500E-7	3.871267E-4
1.626000E-7	4.025433E-4
1.626500E-7	4.282375E-4
1.627000E-7	4.505059E-4
1.627500E-7	4.779131E-4
1.628000E-7	5.070332E-4
1.628500E-7	5.207368E-4
1.629000E-7	5.190239E-4
1.629500E-7	5.053203E-4
1.630000E-7	4.744872E-4
1.630500E-7	4.350893E-4
1.631000E-7	3.956915E-4
1.631500E-7	3.374512E-4
1.632000E-7	2.792109E-4
1.632500E-7	2.398130E-4
1.633000E-7	2.158317E-4
1.633500E-7	1.918504E-4
1.634000E-7	1.832857E-4
1.634500E-7	1.987022E-4
1.635000E-7	2.192576E-4
1.635500E-7	2.415260E-4
1.636000E-7	2.809238E-4
1.636500E-7	3.186087E-4
1.637000E-7	3.374512E-4
1.637500E-7	3.494418E-4
1.638000E-7	3.597195E-4
1.638500E-7	3.614325E-4
1.639000E-7	3.614325E-4
1.639500E-7	3.751361E-4
1.640000E-7	3.956915E-4
1.640500E-7	4.248116E-4
1.641000E-7	4.642095E-4
1.641500E-7	5.087462E-4
1.642000E-7	5.584217E-4
1.642500E-7	6.046714E-4
1.643000E-7	6.303656E-4
1.643500E-7	6.423563E-4
1.644000E-7	6.560599E-4
1.644500E-7	6.560599E-4
1.645000E-7	6.218009E-4
1.645500E-7	5.584217E-4
1.646000E-7	4.864778E-4
1.646500E-7	4.128210E-4
1.647000E-7	3.220346E-4
1.647500E-7	2.329612E-4
1.648000E-7	1.764339E-4
1.648500E-7	1.456008E-4
1.649000E-7	1.250454E-4
1.649500E-7	1.284713E-4
1.650000E-7	1.781468E-4
1.650500E-7	2.500907E-4
1.651000E-7	3.305994E-4
1.651500E-7	4.093951E-4
1.652000E-7	4.727742E-4
1.652500E-7	5.121721E-4
1.653000E-7	5.447181E-4
1.653500E-7	5.584217E-4
1.654000E-7	5.344404E-4
1.654500E-7	4.813390E-4
1.655000E-7	4.179598E-4
1.655500E-7	3.477289E-4
1.656000E-7	2.620814E-4
1.656500E-7	1.815727E-4
1.657000E-7	1.233324E-4
1.657500E-7	9.249930E-5
1.658000E-7	9.078635E-5
1.658500E-7	9.935110E-5
1.659000E-7	1.164806E-4
1.659500E-7	1.524526E-4
1.660000E-7	2.021281E-4
1.660500E-7	2.637943E-4
1.661000E-7	3.220346E-4
1.661500E-7	3.494418E-4
1.662000E-7	3.477289E-4
1.662500E-7	3.665713E-4
1.663000E-7	3.854138E-4
1.663500E-7	3.631454E-4
1.664000E-7	3.151828E-4
1.664500E-7	2.843497E-4
1.665000E-7	2.466648E-4
1.665500E-7	2.021281E-4
1.666000E-7	1.832857E-4
1.666500E-7	1.747209E-4
1.667000E-7	1.627303E-4
1.667500E-7	1.815727E-4
1.668000E-7	2.106929E-4
1.668500E-7	2.243965E-4
1.669000E-7	2.346742E-4
1.669500E-7	2.415260E-4
1.670000E-7	2.329612E-4
1.670500E-7	2.106929E-4
1.671000E-7	1.901375E-4
1.671500E-7	1.593044E-4
1.672000E-7	1.147677E-4
1.672500E-7	6.680505E-5
1.673000E-7	1.884245E-5
1.673500E-7	-1.884245E-5
1.674000E-7	-3.939785E-5
1.674500E-7	-3.254605E-5
1.675000E-7	5.138850E-6
1.675500E-7	6.166620E-5
1.676000E-7	1.353231E-4
1.676500E-7	2.295353E-4
1.677000E-7	3.460159E-4
1.677500E-7	4.573577E-4
1.678000E-7	5.481440E-4
1.678500E-7	6.252268E-4
1.679000E-7	6.766153E-4
1.679500E-7	6.937448E-4
1.680000E-7	6.988836E-4
1.680500E-7	6.954577E-4
1.681000E-7	6.646246E-4
1.681500E-7	6.149491E-4
1.682000E-7	5.721253E-4
1.682500E-7	5.395793E-4
1.683000E-7	5.053203E-4
1.683500E-7	4.916167E-4
1.684000E-7	5.241627E-4
1.684500E-7	5.686994E-4
1.685000E-7	6.046714E-4
1.685500E-7	6.594858E-4
1.686000E-7	7.245779E-4
1.686500E-7	7.639757E-4
1.687000E-7	7.879570E-4
1.687500E-7	8.067995E-4
1.688000E-7	7.948088E-4
1.688500E-7	7.674016E-4
1.689000E-7	7.399944E-4
1.689500E-7	7.023095E-4
1.690000E-7	6.509210E-4
1.690500E-7	5.926807E-4
1.691000E-7	5.361534E-4
1.691500E-7	4.847649E-4
1.692000E-7	4.299505E-4
1.692500E-7	3.768490E-4
1.693000E-7	3.357382E-4
1.693500E-7	2.843497E-4
1.694000E-7	2.158317E-4
1.694500E-7	1.524526E-4
1.695000E-7	1.010641E-4
1.695500E-7	6.337915E-5
1.696000E-7	5.481440E-5
1.696500E-7	6.680505E-5
1.697000E-7	8.393455E-5
1.697500E-7	1.216195E-4
1.698000E-7	1.867116E-4
1.698500E-7	2.620814E-4
1.699000E-7	3.288864E-4
1.699500E-7	3.785620E-4
1.700000E-7	4.008303E-4
1.700500E-7	3.922656E-4
1.701000E-7	3.545807E-4
1.701500E-7	2.723591E-4
1.702000E-7	1.473137E-4
1.702500E-7	3.083310E-5
1.703000E-7	-7.023095E-5
1.703500E-7	-1.712950E-4
1.704000E-7	-2.261094E-4
1.704500E-7	-2.141188E-4
1.705000E-7	-1.712950E-4
1.705500E-7	-1.010641E-4
1.706000E-7	1.884245E-5
1.706500E-7	1.541655E-4
1.707000E-7	2.792109E-4
1.707500E-7	4.076821E-4
1.708000E-7	5.378663E-4
1.708500E-7	6.457822E-4
1.709000E-7	7.177261E-4
1.709500E-7	7.554110E-4
1.710000E-7	7.656887E-4
1.710500E-7	7.656887E-4
1.711000E-7	7.622628E-4
1.711500E-7	7.451333E-4
1.712000E-7	7.040225E-4
1.712500E-7	6.543469E-4
1.713000E-7	5.926807E-4
1.713500E-7	5.138850E-4
1.714000E-7	4.505059E-4
1.714500E-7	3.974044E-4
1.715000E-7	3.357382E-4
1.715500E-7	2.912015E-4
1.716000E-7	2.809238E-4
1.716500E-7	2.843497E-4
1.717000E-7	3.100440E-4
1.717500E-7	3.648584E-4
1.718000E-7	4.265246E-4
1.718500E-7	4.967555E-4
1.719000E-7	5.875419E-4
1.719500E-7	6.834671E-4
1.720000E-7	7.691146E-4
1.720500E-7	8.359196E-4
1.721000E-7	8.701786E-4
1.721500E-7	8.787434E-4
1.722000E-7	8.890211E-4
1.722500E-7	8.941599E-4
1.723000E-7	8.633268E-4
1.723500E-7	7.999477E-4
1.724000E-7	7.434203E-4
1.724500E-7	7.211520E-4
1.725000E-7	7.194390E-4
1.725500E-7	7.262908E-4
1.726000E-7	7.434203E-4
1.726500E-7	7.605498E-4
1.727000E-7	7.554110E-4
1.727500E-7	7.297167E-4
1.728000E-7	7.091613E-4
1.728500E-7	6.868930E-4
1.729000E-7	6.457822E-4
1.729500E-7	5.943937E-4
1.730000E-7	5.361534E-4
1.730500E-7	4.676354E-4
1.731000E-7	3.802749E-4
1.731500E-7	2.980533E-4
1.732000E-7	2.381001E-4
1.732500E-7	1.815727E-4
1.733000E-7	1.250454E-4
1.733500E-7	8.907340E-5
1.734000E-7	7.365685E-5
1.734500E-7	8.564750E-5
1.735000E-7	1.267583E-4
1.735500E-7	1.849986E-4
1.736000E-7	2.449519E-4
1.736500E-7	3.168958E-4
1.737000E-7	4.042562E-4
1.737500E-7	4.864778E-4
1.738000E-7	5.584217E-4
1.738500E-7	6.252268E-4
1.739000E-7	6.800412E-4
1.739500E-7	7.211520E-4
1.740000E-7	7.348556E-4
1.740500E-7	7.228649E-4
1.741000E-7	6.886059E-4
1.741500E-7	6.320786E-4
1.742000E-7	5.704124E-4
1.742500E-7	5.070332E-4
1.743000E-7	4.470800E-4
1.743500E-7	3.991174E-4
1.744000E-7	3.665713E-4
1.744500E-7	3.511548E-4
1.745000E-7	3.614325E-4
1.745500E-7	3.854138E-4
1.746000E-7	3.956915E-4
1.746500E-7	4.076821E-4
1.747000E-7	4.385152E-4
1.747500E-7	4.453670E-4
1.748000E-7	4.179598E-4
1.748500E-7	3.888397E-4
1.749000E-7	3.460159E-4
1.749500E-7	2.792109E-4
1.750000E-7	2.089799E-4
1.750500E-7	1.438878E-4
1.751000E-7	7.194390E-5
1.751500E-7	1.712950E-6
1.752000E-7	-4.111080E-5
1.752500E-7	-5.481440E-5
1.753000E-7	-4.796260E-5
1.753500E-7	-5.138850E-6
1.754000E-7	8.050865E-5
1.754500E-7	1.678691E-4
1.755000E-7	2.415260E-4
1.755500E-7	3.220346E-4
1.756000E-7	4.145339E-4
1.756500E-7	4.984685E-4
1.757000E-7	5.601347E-4
1.757500E-7	6.080973E-4
1.758000E-7	6.389304E-4
1.758500E-7	6.594858E-4
1.759000E-7	6.731894E-4
1.759500E-7	6.646246E-4
1.760000E-7	6.423563E-4
1.760500E-7	6.252268E-4
1.761000E-7	5.995325E-4
1.761500E-7	5.635606E-4
1.762000E-7	5.481440E-4
1.762500E-7	5.378663E-4
1.763000E-7	5.173109E-4
1.763500E-7	4.967555E-4
1.764000E-7	4.744872E-4
1.764500E-7	4.316634E-4
1.765000E-7	3.837008E-4
1.765500E-7	3.494418E-4
1.766000E-7	3.323123E-4
1.766500E-7	3.237476E-4
1.767000E-7	3.117569E-4
1.767500E-7	3.151828E-4
1.768000E-7	3.494418E-4
1.768500E-7	3.819879E-4
1.769000E-7	3.837008E-4
1.769500E-7	3.871267E-4
1.770000E-7	4.145339E-4
1.770500E-7	4.453670E-4
1.771000E-7	4.556447E-4
1.771500E-7	4.642095E-4
1.772000E-7	4.864778E-4
1.772500E-7	5.018944E-4
1.773000E-7	4.933296E-4
1.773500E-7	4.847649E-4
1.774000E-7	4.762001E-4
1.774500E-7	4.556447E-4
1.775000E-7	4.196728E-4
1.775500E-7	3.717102E-4
1.776000E-7	3.288864E-4
1.776500E-7	3.083310E-4
1.777000E-7	2.894886E-4
1.777500E-7	2.603684E-4
1.778000E-7	2.535166E-4
1.778500E-7	2.723591E-4
1.779000E-7	2.912015E-4
1.779500E-7	3.134699E-4
1.780000E-7	3.460159E-4
1.780500E-7	3.819879E-4
1.781000E-7	4.093951E-4
1.781500E-7	4.316634E-4
1.782000E-7	4.539318E-4
1.782500E-7	4.762001E-4
1.783000E-7	4.967555E-4
1.783500E-7	5.036073E-4
1.784000E-7	4.916167E-4
1.784500E-7	4.796260E-4
1.785000E-7	4.916167E-4
1.785500E-7	5.001814E-4
1.786000E-7	5.001814E-4
1.786500E-7	5.173109E-4
1.787000E-7	5.310145E-4
1.787500E-7	5.241627E-4
1.788000E-7	5.293016E-4
1.788500E-7	5.430052E-4
1.789000E-7	5.361534E-4
1.789500E-7	5.070332E-4
1.790000E-7	4.693483E-4
1.790500E-7	4.299505E-4
1.791000E-7	3.785620E-4
1.791500E-7	3.134699E-4
1.792000E-7	2.483778E-4
1.792500E-7	2.038411E-4
1.793000E-7	1.764339E-4
1.793500E-7	1.524526E-4
1.794000E-7	1.524526E-4
1.794500E-7	1.849986E-4
1.795000E-7	2.261094E-4
1.795500E-7	2.689332E-4
1.796000E-7	3.340253E-4
1.796500E-7	4.042562E-4
1.797000E-7	4.522188E-4
1.797500E-7	4.813390E-4
1.798000E-7	5.070332E-4
1.798500E-7	5.224498E-4
1.799000E-7	5.138850E-4
1.799500E-7	4.864778E-4
1.800000E-7	4.556447E-4
1.800500E-7	4.316634E-4
1.801000E-7	4.196728E-4
1.801500E-7	4.282375E-4
1.802000E-7	4.590706E-4
1.802500E-7	5.087462E-4
1.803000E-7	5.841160E-4
1.803500E-7	6.646246E-4
1.804000E-7	7.554110E-4
1.804500E-7	8.547621E-4
1.805000E-7	9.369837E-4
1.805500E-7	9.729556E-4
1.806000E-7	9.643909E-4
1.806500E-7	9.061506E-4
1.807000E-7	7.913829E-4
1.807500E-7	6.440692E-4
1.808000E-7	4.710613E-4
1.808500E-7	2.774979E-4
1.809000E-7	8.564750E-5
1.809500E-7	-7.194390E-5
1.810000E-7	-1.764339E-4
1.810500E-7	-2.312483E-4
1.811000E-7	-2.261094E-4
1.811500E-7	-1.473137E-4
1.812000E-7	-1.712950E-6
1.812500E-7	1.815727E-4
1.813000E-7	3.682843E-4
1.813500E-7	5.601347E-4
1.814000E-7	7.331426E-4
1.814500E-7	8.547621E-4
1.815000E-7	9.130024E-4
1.815500E-7	9.044376E-4
1.816000E-7	8.393455E-4
1.816500E-7	7.348556E-4
1.817000E-7	5.875419E-4
1.817500E-7	4.042562E-4
1.818000E-7	2.329612E-4
1.818500E-7	8.907340E-5
1.819000E-7	-2.912015E-5
1.819500E-7	-1.096288E-4
1.820000E-7	-1.456008E-4
1.820500E-7	-1.301842E-4
1.821000E-7	-7.194390E-5
1.821500E-7	1.027770E-5
1.822000E-7	1.044900E-4
1.822500E-7	2.106929E-4
1.823000E-7	2.860627E-4
1.823500E-7	3.100440E-4
1.824000E-7	3.237476E-4
1.824500E-7	3.374512E-4
1.825000E-7	3.134699E-4
1.825500E-7	2.518037E-4
1.826000E-7	1.849986E-4
1.826500E-7	1.250454E-4
1.827000E-7	6.509210E-5
1.827500E-7	5.138850E-6
1.828000E-7	-3.597195E-5
1.828500E-7	-5.138850E-5
1.829000E-7	-5.652735E-5
1.829500E-7	-4.967555E-5
1.830000E-7	-1.541655E-5
1.830500E-7	3.939785E-5
1.831000E-7	1.010641E-4
1.831500E-7	1.764339E-4
1.832000E-7	2.706461E-4
1.832500E-7	3.597195E-4
1.833000E-7	4.487929E-4
1.833500E-7	5.430052E-4
1.834000E-7	6.303656E-4
1.834500E-7	6.954577E-4
1.835000E-7	7.365685E-4
1.835500E-7	7.674016E-4
1.836000E-7	7.776793E-4
1.836500E-7	7.639757E-4
1.837000E-7	7.160131E-4
1.837500E-7	6.320786E-4
1.838000E-7	5.344404E-4
1.838500E-7	4.402282E-4
1.839000E-7	3.443030E-4
1.839500E-7	2.637943E-4
1.840000E-7	2.175447E-4
1.840500E-7	1.832857E-4
1.841000E-7	1.730080E-4
1.841500E-7	1.987022E-4
1.842000E-7	2.449519E-4
1.842500E-7	3.049051E-4
1.843000E-7	3.768490E-4
1.843500E-7	4.248116E-4
1.844000E-7	4.693483E-4
1.844500E-7	5.207368E-4
1.845000E-7	5.481440E-4
1.845500E-7	5.344404E-4
1.846000E-7	5.001814E-4
1.846500E-7	4.590706E-4
1.847000E-7	4.179598E-4
1.847500E-7	3.734231E-4
1.848000E-7	3.271735E-4
1.848500E-7	2.792109E-4
1.849000E-7	2.278224E-4
1.849500E-7	1.747209E-4
1.850000E-7	1.233324E-4
1.850500E-7	7.708275E-5
1.851000E-7	3.425900E-5
1.851500E-7	6.851800E-6
1.852000E-7	-6.851800E-6
1.852500E-7	-1.370360E-5
1.853000E-7	-1.370360E-5
1.853500E-7	1.027770E-5
1.854000E-7	4.796260E-5
1.854500E-7	9.249930E-5
1.855000E-7	1.404619E-4
1.855500E-7	1.935634E-4
1.856000E-7	2.449519E-4
1.856500E-7	2.997663E-4
1.857000E-7	3.562936E-4
1.857500E-7	4.093951E-4
1.858000E-7	4.453670E-4
1.858500E-7	4.607836E-4
1.859000E-7	4.659224E-4
1.859500E-7	4.830519E-4
1.860000E-7	5.087462E-4
1.860500E-7	5.327275E-4
1.861000E-7	5.686994E-4
1.861500E-7	6.029584E-4
1.862000E-7	6.269397E-4
1.862500E-7	6.457822E-4
1.863000E-7	6.697635E-4
1.863500E-7	6.851800E-4
1.864000E-7	6.920318E-4
1.864500E-7	7.040225E-4
1.865000E-7	7.040225E-4
1.865500E-7	6.714764E-4
1.866000E-7	6.252268E-4
1.866500E-7	5.824030E-4
1.867000E-7	5.173109E-4
1.867500E-7	4.333764E-4
1.868000E-7	3.511548E-4
1.868500E-7	2.774979E-4
1.869000E-7	2.004152E-4
1.869500E-7	1.336101E-4
1.870000E-7	9.592520E-5
1.870500E-7	7.194390E-5
1.871000E-7	4.967555E-5
1.871500E-7	3.939785E-5
1.872000E-7	4.453670E-5
1.872500E-7	4.796260E-5
1.873000E-7	6.509210E-5
1.873500E-7	1.079159E-4
1.874000E-7	1.627303E-4
1.874500E-7	2.278224E-4
1.875000E-7	3.031922E-4
1.875500E-7	3.751361E-4
1.876000E-7	4.624965E-4
1.876500E-7	5.618476E-4
1.877000E-7	6.372174E-4
1.877500E-7	6.834671E-4
1.878000E-7	7.280038E-4
1.878500E-7	7.811052E-4
1.879000E-7	8.290678E-4
1.879500E-7	8.667527E-4
1.880000E-7	8.736045E-4
1.880500E-7	8.479103E-4
1.881000E-7	8.050865E-4
1.881500E-7	7.554110E-4
1.882000E-7	6.954577E-4
1.882500E-7	6.149491E-4
1.883000E-7	5.121721E-4
1.883500E-7	3.956915E-4
1.884000E-7	2.860627E-4
1.884500E-7	1.884245E-4
1.885000E-7	9.935110E-5
1.885500E-7	3.254605E-5
1.886000E-7	-1.199065E-5
1.886500E-7	-3.254605E-5
1.887000E-7	-5.138850E-6
1.887500E-7	5.652735E-5
1.888000E-7	1.233324E-4
1.888500E-7	1.987022E-4
1.889000E-7	2.894886E-4
1.889500E-7	3.734231E-4
1.890000E-7	4.402282E-4
1.890500E-7	4.864778E-4
1.891000E-7	5.121721E-4
1.891500E-7	5.070332E-4
1.892000E-7	4.642095E-4
1.892500E-7	3.991174E-4
1.893000E-7	3.288864E-4
1.893500E-7	2.415260E-4
1.894000E-7	1.456008E-4
1.894500E-7	6.337915E-5
1.895000E-7	-1.370360E-5
1.895500E-7	-7.536980E-5
1.896000E-7	-7.708275E-5
1.896500E-7	-3.254605E-5
1.897000E-7	1.199065E-5
1.897500E-7	6.509210E-5
1.898000E-7	1.541655E-4
1.898500E-7	2.603684E-4
1.899000E-7	3.580066E-4
1.899500E-7	4.539318E-4
1.900000E-7	5.464311E-4
1.900500E-7	6.286527E-4
1.901000E-7	6.886059E-4
1.901500E-7	7.074484E-4
1.902000E-7	7.005966E-4
1.902500E-7	6.868930E-4
1.903000E-7	6.406433E-4
1.903500E-7	5.567088E-4
1.904000E-7	4.796260E-4
1.904500E-7	4.248116E-4
1.905000E-7	3.648584E-4
1.905500E-7	3.186087E-4
1.906000E-7	3.031922E-4
1.906500E-7	2.963404E-4
1.907000E-7	2.946274E-4
1.907500E-7	3.168958E-4
1.908000E-7	3.545807E-4
1.908500E-7	3.905526E-4
1.909000E-7	4.059692E-4
1.909500E-7	4.042562E-4
1.910000E-7	3.974044E-4
1.910500E-7	3.699972E-4
1.911000E-7	3.237476E-4
1.911500E-7	2.757850E-4
1.912000E-7	2.243965E-4
1.912500E-7	1.627303E-4
1.913000E-7	9.935110E-5
1.913500E-7	5.652735E-5
1.914000E-7	2.398130E-5
1.914500E-7	0.000000E+0
1.915000E-7	-3.254605E-5
1.915500E-7	-6.509210E-5
1.916000E-7	-7.023095E-5
1.916500E-7	-7.536980E-5
1.917000E-7	-1.096288E-4
1.917500E-7	-1.284713E-4
1.918000E-7	-9.592520E-5
1.918500E-7	-6.166620E-5
1.919000E-7	-3.083310E-5
1.919500E-7	2.912015E-5
1.920000E-7	1.353231E-4
1.920500E-7	2.689332E-4
1.921000E-7	4.333764E-4
1.921500E-7	6.183750E-4
1.922000E-7	7.999477E-4
1.922500E-7	9.746686E-4
1.923000E-7	1.127121E-3
1.923500E-7	1.241889E-3
1.924000E-7	1.332675E-3
1.924500E-7	1.390915E-3
1.925000E-7	1.385777E-3
1.925500E-7	1.334388E-3
1.926000E-7	1.264157E-3
1.926500E-7	1.168232E-3
1.927000E-7	1.048325E-3
1.927500E-7	9.267060E-4
1.928000E-7	8.067995E-4
1.928500E-7	6.971707E-4
1.929000E-7	6.235138E-4
1.929500E-7	5.892548E-4
1.930000E-7	5.704124E-4
1.930500E-7	5.618476E-4
1.931000E-7	5.669865E-4
1.931500E-7	5.841160E-4
1.932000E-7	6.063843E-4
1.932500E-7	6.406433E-4
1.933000E-7	6.749023E-4
1.933500E-7	6.920318E-4
1.934000E-7	7.057354E-4
1.934500E-7	7.228649E-4
1.935000E-7	7.143002E-4
1.935500E-7	6.903189E-4
1.936000E-7	6.766153E-4
1.936500E-7	6.474951E-4
1.937000E-7	5.978196E-4
1.937500E-7	5.601347E-4
1.938000E-7	5.327275E-4
1.938500E-7	4.916167E-4
1.939000E-7	4.573577E-4
1.939500E-7	4.230987E-4
1.940000E-7	3.785620E-4
1.940500E-7	3.408771E-4
1.941000E-7	3.151828E-4
1.941500E-7	3.014792E-4
1.942000E-7	2.843497E-4
1.942500E-7	2.655073E-4
1.943000E-7	2.535166E-4
1.943500E-7	2.432389E-4
1.944000E-7	2.415260E-4
1.944500E-7	2.295353E-4
1.945000E-7	2.106929E-4
1.945500E-7	2.021281E-4
1.946000E-7	2.175447E-4
1.946500E-7	2.312483E-4
1.947000E-7	2.466648E-4
1.947500E-7	2.792109E-4
1.948000E-7	3.151828E-4
1.948500E-7	3.460159E-4
1.949000E-7	3.905526E-4
1.949500E-7	4.385152E-4
1.950000E-7	4.933296E-4
1.950500E-7	5.481440E-4
1.951000E-7	5.635606E-4
1.951500E-7	5.310145E-4
1.952000E-7	5.036073E-4
1.952500E-7	4.847649E-4
1.953000E-7	4.350893E-4
1.953500E-7	3.717102E-4
1.954000E-7	3.134699E-4
1.954500E-7	2.398130E-4
1.955000E-7	1.627303E-4
1.955500E-7	1.044900E-4
1.956000E-7	5.995325E-5
1.956500E-7	2.055540E-5
1.957000E-7	1.370360E-5
1.957500E-7	2.740720E-5
1.958000E-7	4.111080E-5
1.958500E-7	7.708275E-5
1.959000E-7	1.438878E-4
1.959500E-7	1.935634E-4
1.960000E-7	2.415260E-4
1.960500E-7	3.049051E-4
1.961000E-7	3.494418E-4
1.961500E-7	3.665713E-4
1.962000E-7	3.837008E-4
1.962500E-7	3.905526E-4
1.963000E-7	3.785620E-4
1.963500E-7	3.511548E-4
1.964000E-7	3.049051E-4
1.964500E-7	2.398130E-4
1.965000E-7	1.593044E-4
1.965500E-7	7.194390E-5
1.966000E-7	3.425900E-6
1.966500E-7	-5.310145E-5
1.967000E-7	-1.062029E-4
1.967500E-7	-1.233324E-4
1.968000E-7	-9.763815E-5
1.968500E-7	-6.166620E-5
1.969000E-7	-3.425900E-6
1.969500E-7	8.736045E-5
1.970000E-7	2.004152E-4
1.970500E-7	3.254605E-4
1.971000E-7	4.573577E-4
1.971500E-7	5.686994E-4
1.972000E-7	6.629117E-4
1.972500E-7	7.519851E-4
1.973000E-7	8.033736E-4
1.973500E-7	7.930959E-4
1.974000E-7	7.536980E-4
1.974500E-7	6.988836E-4
1.975000E-7	6.080973E-4
1.975500E-7	4.967555E-4
1.976000E-7	3.939785E-4
1.976500E-7	2.929145E-4
1.977000E-7	1.867116E-4
1.977500E-7	1.044900E-4
1.978000E-7	6.166620E-5
1.978500E-7	4.282375E-5
1.979000E-7	4.111080E-5
1.979500E-7	5.652735E-5
1.980000E-7	9.763815E-5
1.980500E-7	1.695821E-4
1.981000E-7	2.518037E-4
1.981500E-7	3.288864E-4
1.982000E-7	4.111080E-4
1.982500E-7	5.053203E-4
1.983000E-7	5.995325E-4
1.983500E-7	6.663376E-4
1.984000E-7	7.074484E-4
1.984500E-7	7.399944E-4
1.985000E-7	7.502721E-4
1.985500E-7	7.194390E-4
1.986000E-7	6.749023E-4
1.986500E-7	6.252268E-4
1.987000E-7	5.618476E-4
1.987500E-7	4.950426E-4
1.988000E-7	4.248116E-4
1.988500E-7	3.357382E-4
1.989000E-7	2.363871E-4
1.989500E-7	1.575914E-4
1.990000E-7	9.763815E-5
1.990500E-7	6.337915E-5
1.991000E-7	5.138850E-5
1.991500E-7	5.824030E-5
1.992000E-7	8.736045E-5
1.992500E-7	1.353231E-4
1.993000E-7	1.867116E-4
1.993500E-7	2.500907E-4
1.994000E-7	3.288864E-4
1.994500E-7	4.111080E-4
1.995000E-7	4.916167E-4
1.995500E-7	5.464311E-4
1.996000E-7	5.772642E-4
1.996500E-7	5.995325E-4
1.997000E-7	5.961066E-4
1.997500E-7	5.532829E-4
1.998000E-7	5.018944E-4
1.998500E-7	4.385152E-4
1.999000E-7	3.477289E-4
1.999500E-7	2.620814E-4
2.000000E-7	1.969893E-4
2.000500E-7	1.387490E-4
